Time (hr),Fouling factor (m2 K/kW)
3.333333333,0.00230
3.666666667,0.00200
4,0.01200
4.333333333,0.01490
4.666666667,0.01710
5,0.01510
5.333333333,0.01340
5.666666667,0.01340
6,0.01200
6.333333333,0.01090
6.666666667,0.01290
7,0.01430
7.333333333,0.01370
7.666666667,0.01510
8,0.01630
8.333333333,0.01510
8.666666667,0.01630
9,0.01290
9.333333333,0.01060
9.666666667,0.01200
10,0.01630
10.33333333,0.02570
10.66666667,0.02290
11,0.02230
11.33333333,0.02290
11.66666667,0.02430
12,0.02660
12.33333333,0.02570
12.66666667,0.02890
13,0.02940
13.33333333,0.02720
13.66666667,0.03090
14,0.02770
14.33333333,0.02940
14.66666667,0.02940
15,0.02940
15.33333333,0.02740
15.66666667,0.02710
16,0.02800
16.33333333,0.02740
16.66666667,0.02920
17,0.02860
17.33333333,0.02570
17.66666667,0.02940
18,0.02570
18.33333333,0.02490
18.66666667,0.02230
19,0.02800
19.33333333,0.02230
19.66666667,0.02490
20,0.02520
20.33333333,0.02370
20.66666667,0.02430
21,0.02340
21.33333333,0.02090
21.66666667,0.02060
22,0.01800
22.33333333,0.01860
22.66666667,0.02030
23,0.01570
23.33333333,0.01630
23.66666667,0.01660
24,0.01770
24.33333333,0.01660
24.66666667,0.01860
25,0.02060
25.33333333,0.01690
25.66666667,0.01690
26,0.01600
26.33333333,0.01770
26.66666667,0.01770
27,0.01770
27.33333333,0.01860
27.66666667,0.01610
28,0.01800
28.33333333,0.02090
28.66666667,0.01990
29,0.01870
29.33333333,0.02150
29.66666667,0.02190
30,0.02230
30.33333333,0.02090
30.66666667,0.01630
31,0.02140
31.33333333,0.01660
31.66666667,0.01710
32,0.01690
32.33333333,0.01940
32.66666667,0.01720
33,0.01770
33.33333333,0.02140
33.66666667,0.02090
34,0.02140
34.33333333,0.01660
34.66666667,0.01920
35,0.01490
35.33333333,0.01770
35.66666667,0.01940
36,0.02140
36.33333333,0.01920
36.66666667,0.01940
37,0.01570
37.33333333,0.01770
37.66666667,0.01940
38,0.02000
38.33333333,0.02230
38.66666667,0.02060
39,0.02140
39.33333333,0.01860
39.66666667,0.02060
40,0.01960
40.33333333,0.02000
40.66666667,0.01860
41,0.02140
41.33333333,0.01490
41.66666667,0.01570
42,0.01570
42.33333333,0.01660
42.66666667,0.01800
43,0.01860
43.33333333,0.01730
43.66666667,0.01800
44,0.01790
44.33333333,0.01650
44.66666667,0.01580
45,0.01490
45.33333333,0.01360
45.66666667,0.01420
46,0.01390
46.33333333,0.02230
46.66666667,0.02290
47,0.01710
47.33333333,0.01630
47.66666667,0.01570
48,0.01390
48.33333333,0.01230
48.66666667,0.01290
49,0.01570
49.33333333,0.02290
49.66666667,0.02800
1,0.00910
1.333333333,0.01420
1.666666667,0.01480
2,0.00440
2.333333333,0.00290
2.666666667,0.03250
3,0.04070
3.333333333,0.04480
3.666666667,0.04280
4,0.03970
4.333333333,0.03920
4.666666667,0.04180
5,0.03940
5.333333333,0.04250
5.666666667,0.04070
6,0.04330
6.333333333,0.04990
6.666666667,0.06200
7,0.07240
7.333333333,0.09000
7.666666667,0.09740
8,0.09350
8.333333333,0.10050
8.666666667,0.09890
9,0.10520
9.333333333,0.10700
9.666666667,0.11360
10,0.11010
10.33333333,0.11250
10.66666667,0.11670
11,0.11930
11.33333333,0.12030
11.66666667,0.11830
12,0.11720
12.33333333,0.11930
12.66666667,0.11970
13,0.12020
13.33333333,0.11970
13.66666667,0.11960
14,0.12130
14.33333333,0.11920
14.66666667,0.11920
15,0.11870
15.33333333,0.12020
15.66666667,0.12020
16,0.12020
16.33333333,0.11970
16.66666667,0.12070
17,0.12280
17.33333333,0.12540
17.66666667,0.12810
18,0.13120
18.33333333,0.13110
18.66666667,0.12960
19,0.12230
19.33333333,0.13060
19.66666667,0.12700
20,0.12390
20.33333333,0.12310
20.66666667,0.12490
21,0.14520
21.33333333,0.13380
21.66666667,0.12850
22,0.12910
22.33333333,0.12750
22.66666667,0.13270
23,0.12750
23.33333333,0.13370
23.66666667,0.12600
24,0.12850
24.33333333,0.12800
24.66666667,0.13270
25,0.12440
25.33333333,0.12700
25.66666667,0.13760
26,0.14200
26.33333333,0.14550
26.66666667,0.14410
27,0.14000
27.33333333,0.14030
27.66666667,0.13830
28,0.13260
28.33333333,0.13170
28.66666667,0.12960
29,0.12700
29.33333333,0.12800
29.66666667,0.11870
30,0.12490
30.33333333,0.12800
30.66666667,0.13020
31,0.12640
31.33333333,0.11770
31.66666667,0.12800
32,0.13940
32.33333333,0.13630
32.66666667,0.12950
33,0.13070
33.33333333,0.12800
33.66666667,0.13330
34,0.13430
34.33333333,0.12850
34.66666667,0.13060
35,0.13110
35.33333333,0.13210
35.66666667,0.13060
36,0.13580
36.33333333,0.13370
36.66666667,0.13680
37,0.14000
37.33333333,0.14850
37.66666667,0.14550
38,0.15300
38.33333333,0.15770
38.66666667,0.14960
39,0.14750
39.33333333,0.14410
39.66666667,0.14620
40,0.13880
40.33333333,0.14340
40.66666667,0.14410
41,0.14360
41.33333333,0.14000
41.66666667,0.15140
42,0.13850
42.33333333,0.15350
42.66666667,0.14800
43,0.15680
43.33333333,0.15060
43.66666667,0.15170
44,0.14550
44.33333333,0.14570
44.66666667,0.14170
45,0.14720
45.33333333,0.14380
45.66666667,0.14620
46,0.14720
46.33333333,0.14900
46.66666667,0.15370
47,0.15710
47.33333333,0.15190
1.666666667,0.00290
2,0.02490
2.333333333,0.03970
2.666666667,0.03460
3,0.03380
3.333333333,0.02830
3.666666667,0.01930
4,0.01090
4.333333333,0.01890
4.666666667,0.02220
5,0.02230
5.333333333,0.04200
5.666666667,0.05190
6,0.06570
6.333333333,0.06540
6.666666667,0.06570
7,0.07710
7.333333333,0.07670
7.666666667,0.08980
8,0.09810
8.333333333,0.10340
8.666666667,0.13360
9,0.14660
9.333333333,0.14910
9.666666667,0.16960
10,0.17640
10.33333333,0.22680
10.66666667,0.23640
11,0.27770
11.33333333,0.32970
11.66666667,0.35320
12,0.36650
12.33333333,0.36580
12.66666667,0.36800
13,0.40140
13.33333333,0.42070
13.66666667,0.44590
14,0.44070
14.33333333,0.45610
14.66666667,0.45600
15,0.47380
15.33333333,0.48210
15.66666667,0.49770
16,0.48510
16.33333333,0.49860
16.66666667,0.53360
17,0.54290
17.33333333,0.54980
17.66666667,0.56050
18,0.57570
18.33333333,0.58600
18.66666667,0.59990
19,0.60380
19.33333333,0.57120
19.66666667,0.52310
20,0.53690
20.33333333,0.53930
20.66666667,0.55480
21,0.57130
21.33333333,0.54510
21.66666667,0.52660
22,0.51840
22.33333333,0.50370
22.66666667,0.50220
23,0.48580
23.33333333,0.49790
23.66666667,0.47740
24,0.49730
24.33333333,0.43920
24.66666667,0.45180
25,0.49220
25.33333333,0.50320
25.66666667,0.50980
26,0.50750
26.33333333,0.51880
26.66666667,0.53580
27,0.52950
27.33333333,0.54940
27.66666667,0.54660
28,0.56970
28.33333333,0.58200
28.66666667,0.58310
29,0.59430
29.33333333,0.59990
29.66666667,0.60110
30,0.59100
30.33333333,0.59320
30.66666667,0.59770
31,0.59600
31.33333333,0.59100
31.66666667,0.59430
32,0.58990
32.33333333,0.58480
32.66666667,0.58710
33,0.58650
33.33333333,0.57920
33.66666667,0.57980
34,0.57640
34.33333333,0.61450
34.66666667,0.58650
35,0.58090
35.33333333,0.57640
35.66666667,0.57640
36,0.57750
36.33333333,0.57300
36.66666667,0.56740
37,0.57190
37.33333333,0.57420
37.66666667,0.57300
38,0.56860
38.33333333,0.52710
38.66666667,0.55740
39,0.56520
39.33333333,0.56520
39.66666667,0.62230
40,0.62960
40.33333333,0.67330
40.66666667,0.69010
41,0.73500
41.33333333,0.74950
41.66666667,0.75960
0.666666667,0.01500
1,0.00310
1.666666667,0.00250
2,0.01690
2.333333333,0.02420
2.666666667,0.02550
3,0.03550
3.333333333,0.03060
3.666666667,0.04620
4,0.04970
4.333333333,0.05010
4.666666667,0.06220
5,0.06180
5.333333333,0.08280
5.666666667,0.10000
6,0.10290
6.333333333,0.11400
6.666666667,0.09820
7,0.10100
7.333333333,0.10470
7.666666667,0.11330
8,0.11280
8.333333333,0.11260
8.666666667,0.11270
9,0.11510
9.333333333,0.12640
9.666666667,0.11790
10,0.14840
10.33333333,0.14430
10.66666667,0.13830
11,0.14550
11.33333333,0.14350
11.66666667,0.14420
12,0.14430
12.33333333,0.14160
12.66666667,0.14760
13,0.13780
13.33333333,0.14430
13.66666667,0.14530
14,0.14240
14.33333333,0.13420
14.66666667,0.13860
15,0.13730
15.33333333,0.13980
15.66666667,0.13900
16,0.13560
16.33333333,0.13300
16.66666667,0.13160
17,0.12900
17.33333333,0.12780
17.66666667,0.12370
18,0.12360
18.33333333,0.12640
18.66666667,0.12400
19,0.11210
19.33333333,0.13320
19.66666667,0.14140
20,0.13830
20.33333333,0.12470
20.66666667,0.12490
21,0.12240
21.33333333,0.12650
21.66666667,0.12160
22,0.13480
22.33333333,0.13960
22.66666667,0.14290
23,0.13230
23.33333333,0.16670
23.66666667,0.16870
24,0.15390
24.33333333,0.14990
24.66666667,0.15930
25,0.16050
25.33333333,0.16320
25.66666667,0.18040
26,0.17480
26.33333333,0.17070
26.66666667,0.20820
27,0.20380
27.33333333,0.20470
27.66666667,0.20540
28,0.21150
28.33333333,0.21340
28.66666667,0.19300
29,0.19440
29.33333333,0.21490
29.66666667,0.22300
30,0.21330
30.33333333,0.20780
30.66666667,0.21240
31,0.19920
31.33333333,0.19860
31.66666667,0.19650
32,0.21180
32.33333333,0.20900
32.66666667,0.20780
33,0.20070
33.33333333,0.19930
33.66666667,0.20460
34,0.19940
34.33333333,0.20600
34.66666667,0.19660
35,0.19720
35.33333333,0.21040
35.66666667,0.19930
36,0.19670
36.33333333,0.20590
36.66666667,0.18570
37,0.18910
37.33333333,0.21550
37.66666667,0.21430
38,0.22150
38.33333333,0.21460
38.66666667,0.20780
39,0.20540
39.33333333,0.20820
39.66666667,0.19450
40,0.19570
40.33333333,0.20010
40.66666667,0.19110
41,0.19620
41.33333333,0.18500
41.66666667,0.20640
0,0.00320
1,0.00330
1.333333333,0.00500
1.666666667,0.01600
2,0.01770
2.333333333,0.01170
2.666666667,0.01590
3,0.00840
3.333333333,0.00340
3.666666667,0.00170
4,0.01850
4.333333333,0.02030
4.666666667,0.00420
5,0.01430
5.333333333,0.00670
5.666666667,0.03150
6,0.02280
6.333333333,0.02720
6.666666667,0.01510
7,0.01680
7.333333333,0.02100
7.666666667,0.01680
8,0.02700
8.333333333,0.01840
8.666666667,0.01430
9,0.02420
9.333333333,0.03690
9.666666667,0.02680
10,0.03890
10.33333333,0.05210
10.66666667,0.05300
11,0.04200
11.33333333,0.05310
11.66666667,0.05080
12,0.05060
12.33333333,0.06090
12.66666667,0.07140
13,0.07520
13.33333333,0.07530
13.66666667,0.07480
14,0.07560
14.33333333,0.07570
14.66666667,0.08080
15,0.07750
15.33333333,0.07910
15.66666667,0.07820
16,0.07760
16.33333333,0.08070
16.66666667,0.08290
17,0.08230
17.33333333,0.08230
17.66666667,0.08480
18,0.08400
18.33333333,0.08340
18.66666667,0.08170
19,0.09180
19.33333333,0.11990
19.66666667,0.12320
20,0.13010
20.33333333,0.12540
20.66666667,0.12650
21,0.12200
21.33333333,0.12030
21.66666667,0.11690
22,0.11740
22.33333333,0.11660
22.66666667,0.11800
23,0.11800
23.33333333,0.11190
23.66666667,0.10840
24,0.10580
24.33333333,0.11660
24.66666667,0.12420
25,0.09780
25.33333333,0.10110
25.66666667,0.09840
26,0.10110
26.33333333,0.10280
26.66666667,0.09610
27,0.11760
27.33333333,0.13770
27.66666667,0.13110
28,0.11740
28.33333333,0.12560
28.66666667,0.13020
29,0.12600
29.33333333,0.12260
29.66666667,0.11910
30,0.12060
30.33333333,0.12480
30.66666667,0.12670
31,0.13260
31.33333333,0.13090
31.66666667,0.13340
32,0.13500
32.33333333,0.14520
32.66666667,0.14780
33,0.14890
33.33333333,0.14770
33.66666667,0.15840
34,0.13540
34.33333333,0.15320
34.66666667,0.14950
35,0.12540
35.33333333,0.13560
35.66666667,0.14000
36,0.13810
36.33333333,0.13140
36.66666667,0.13600
37,0.13290
37.33333333,0.12890
37.66666667,0.12330
38,0.12080
38.33333333,0.12580
38.66666667,0.13940
39,0.13340
39.33333333,0.11740
39.66666667,0.11540
40,0.10420
40.33333333,0.10250
40.66666667,0.10890
41,0.11170
41.33333333,0.11710
41.66666667,0.11650
42,0.11740
42.33333333,0.11960
42.66666667,0.10630
43,0.10130
43.33333333,0.10550
43.66666667,0.10890
44,0.10580
44.33333333,0.10500
44.66666667,0.10890
45,0.11150
45.33333333,0.11660
45.66666667,0.11880
46,0.13250
46.33333333,0.14070
46.66666667,0.11480
47,0.13020
47.33333333,0.14150
47.66666667,0.11510
48,0.12240
48.33333333,0.12340
48.66666667,0.13540
49,0.15540
49.33333333,0.12690
49.66666667,0.14930
0,0.03420
2.333333333,0.00190
2.666666667,0.01100
3,0.01160
3.333333333,0.00410
3.666666667,0.00720
4,0.00390
4.333333333,0.00060
4.666666667,0.00540
5,0.00620
5.333333333,0.00180
5.666666667,0.00180
6,0.01070
6.333333333,0.00850
6.666666667,0.00960
7,0.00820
7.333333333,0.01160
7.666666667,0.01770
8,0.01800
8.333333333,0.01710
8.666666667,0.01710
9,0.01350
9.333333333,0.01460
9.666666667,0.01160
10,0.01410
10.33333333,0.01590
10.66666667,0.01740
11,0.01580
11.33333333,0.01580
11.66666667,0.01580
12,0.01770
12.33333333,0.02330
12.66666667,0.02560
13,0.01640
13.33333333,0.01830
13.66666667,0.01810
14,0.02100
14.33333333,0.01920
14.66666667,0.01970
15,0.01620
15.33333333,0.01640
15.66666667,0.01840
16,0.01930
16.33333333,0.01520
16.66666667,0.01560
17,0.01770
17.33333333,0.01640
17.66666667,0.01860
18,0.01970
18.33333333,0.01580
18.66666667,0.01610
19,0.02030
19.33333333,0.02030
19.66666667,0.02030
20,0.01610
20.33333333,0.01610
20.66666667,0.01610
21,0.01780
21.33333333,0.01780
21.66666667,0.01610
22,0.01560
22.33333333,0.01540
22.66666667,0.01560
23,0.01560
23.33333333,0.01590
23.66666667,0.01590
24,0.01430
24.33333333,0.01870
24.66666667,0.02040
25,0.02220
25.33333333,0.01720
25.66666667,0.02210
26,0.02280
26.33333333,0.02160
26.66666667,0.02270
27,0.02130
27.33333333,0.02460
27.66666667,0.02460
28,0.02260
28.33333333,0.02260
28.66666667,0.02460
29,0.02040
29.33333333,0.01710
29.66666667,0.02040
30,0.02260
30.33333333,0.01950
30.66666667,0.02050
31,0.01630
31.33333333,0.02390
31.66666667,0.02220
32,0.02220
32.33333333,0.02250
32.66666667,0.02250
33,0.02140
33.33333333,0.02650
33.66666667,0.02320
34,0.02410
34.33333333,0.02070
34.66666667,0.02160
35,0.02160
35.33333333,0.02160
35.66666667,0.02160
36,0.02000
36.33333333,0.02010
36.66666667,0.02350
37,0.02440
37.33333333,0.02350
37.66666667,0.02520
38,0.02520
38.33333333,0.02350
38.66666667,0.02270
39,0.02550
39.33333333,0.02350
39.66666667,0.02350
40,0.02350
40.33333333,0.02270
40.66666667,0.02710
41,0.02470
41.33333333,0.02500
41.66666667,0.02500
42,0.02500
42.33333333,0.02770
42.66666667,0.02970
43,0.02530
43.33333333,0.02190
43.66666667,0.01760
44,0.01760
44.33333333,0.02190
44.66666667,0.02630
45,0.02660
45.33333333,0.02630
45.66666667,0.02190
46,0.02190
46.33333333,0.02390
46.66666667,0.02390
47,0.02390
47.33333333,0.01950
47.66666667,0.02290
48,0.02290
48.33333333,0.02290
48.66666667,0.02730
49,0.02730
49.33333333,0.02900
49.66666667,0.02290
1,0.00570
1.333333333,0.00410
1.666666667,0.00810
2,0.00430
2.333333333,0.00690
2.666666667,0.00840
3,0.00840
3.333333333,0.00580
3.666666667,0.01540
4,0.01060
4.333333333,0.01680
4.666666667,0.03390
5,0.04390
5.333333333,0.05030
5.666666667,0.05940
6,0.08330
6.333333333,0.11340
6.666666667,0.15190
7,0.20900
7.333333333,0.20590
7.666666667,0.21420
8,0.22300
8.333333333,0.22500
8.666666667,0.23500
9,0.23250
9.333333333,0.24830
9.666666667,0.24870
10,0.28260
10.33333333,0.30100
10.66666667,0.29470
11,0.30020
11.33333333,0.30240
11.66666667,0.30240
12,0.29860
12.33333333,0.30080
12.66666667,0.30130
13,0.37720
13.33333333,0.37460
13.66666667,0.36950
14,0.36640
14.33333333,0.37510
14.66666667,0.36190
15,0.36450
15.33333333,0.35940
15.66666667,0.35620
16,0.37710
16.33333333,0.36260
16.66666667,0.34100
17,0.45170
17.33333333,0.45170
17.66666667,0.45880
18,0.43950
18.33333333,0.44370
18.66666667,0.42370
19,0.44090
19.33333333,0.43120
19.66666667,0.42250
20,0.40480
20.33333333,0.45740
20.66666667,0.42040
21,0.41840
21.33333333,0.41980
21.66666667,0.41980
22,0.41910
22.33333333,0.41570
22.66666667,0.43880
23,0.41020
23.33333333,0.43320
23.66666667,0.42290
24,0.42630
24.33333333,0.43180
24.66666667,0.46810
25,0.46880
25.33333333,0.47880
25.66666667,0.45340
26,0.45140
26.33333333,0.47100
26.66666667,0.44860
27,0.44860
27.33333333,0.44300
27.66666667,0.44370
28,0.44160
28.33333333,0.44020
28.66666667,0.43740
29,0.44020
29.33333333,0.44020
29.66666667,0.45950
30,0.46240
30.33333333,0.46100
30.66666667,0.46170
31,0.43880
31.33333333,0.44300
31.66666667,0.44020
32,0.44020
32.33333333,0.44160
32.66666667,0.44090
33,0.44020
33.33333333,0.44300
33.66666667,0.44790
34,0.46140
34.33333333,0.45720
34.66666667,0.44800
35,0.45360
35.33333333,0.45580
35.66666667,0.46140
36,0.48240
36.33333333,0.48740
36.66666667,0.48600
37,0.48120
37.33333333,0.48820
37.66666667,0.47640
38,0.48130
38.33333333,0.48270
38.66666667,0.48690
39,0.48830
39.33333333,0.48130
39.66666667,0.48130
40,0.48340
40.33333333,0.48130
40.66666667,0.48340
41,0.48620
41.33333333,0.48760
41.66666667,0.50230
42,0.50940
42.33333333,0.51080
42.66666667,0.51220
43,0.51500
43.33333333,0.51500
43.66666667,0.51500
44,0.50640
44.33333333,0.51710
44.66666667,0.50430
45,0.51450
45.33333333,0.51660
45.66666667,0.51660
46,0.52370
46.33333333,0.52370
46.66666667,0.52840
47,0.52210
47.33333333,0.52770
47.66666667,0.52770
48,0.52420
48.33333333,0.52020
48.66666667,0.52160
49,0.51450
49.33333333,0.50920
49.66666667,0.51060
0,0.00860
0.333333333,0.01360
0.666666667,0.01000
1,0.00790
1.333333333,0.01140
1.666666667,0.00340
2,0.00580
2.333333333,0.00820
2.666666667,0.01050
3,0.01640
3.333333333,0.00480
3.666666667,0.02190
4,0.02590
4.333333333,0.05150
4.666666667,0.07510
5,0.05120
5.333333333,0.06510
5.666666667,0.06050
6,0.05820
6.333333333,0.05280
6.666666667,0.05630
7,0.05860
7.333333333,0.06360
7.666666667,0.08210
8,0.08290
8.333333333,0.07000
8.666666667,0.08830
9,0.11610
9.333333333,0.10960
9.666666667,0.11190
10,0.10660
10.33333333,0.10660
10.66666667,0.10990
11,0.09740
11.33333333,0.09280
11.66666667,0.11160
12,0.09740
12.33333333,0.09360
12.66666667,0.09280
13,0.09440
13.33333333,0.09440
13.66666667,0.09590
14,0.09510
14.33333333,0.09060
14.66666667,0.10000
15,0.12140
15.33333333,0.10550
15.66666667,0.10460
16,0.09360
16.33333333,0.09130
16.66666667,0.09910
17,0.09440
17.33333333,0.09590
17.66666667,0.09510
18,0.09050
18.33333333,0.10700
18.66666667,0.10370
19,0.09280
19.33333333,0.11320
19.66666667,0.10060
20,0.10220
20.33333333,0.10370
20.66666667,0.09990
21,0.10140
21.33333333,0.10060
21.66666667,0.10060
22,0.09910
22.33333333,0.09910
22.66666667,0.09450
23,0.10850
23.33333333,0.10220
23.66666667,0.10370
24,0.10530
24.33333333,0.09830
24.66666667,0.09910
25,0.10230
25.33333333,0.11930
25.66666667,0.09510
26,0.08830
26.33333333,0.10050
26.66666667,0.09360
27,0.09990
27.33333333,0.11760
27.66666667,0.15440
28,0.15010
28.33333333,0.13930
28.66666667,0.14510
29,0.14660
29.33333333,0.15130
29.66666667,0.14890
30,0.14970
30.33333333,0.14580
30.66666667,0.14970
31,0.15210
31.33333333,0.15520
31.66666667,0.15130
32,0.15590
32.33333333,0.15750
32.66666667,0.15980
33,0.15750
33.33333333,0.15670
33.66666667,0.15980
34,0.15900
34.33333333,0.16140
34.66666667,0.16220
35,0.16530
35.33333333,0.16450
35.66666667,0.16680
36,0.16990
36.33333333,0.16710
36.66666667,0.16860
37,0.16860
37.33333333,0.17090
37.66666667,0.18000
38,0.17930
38.33333333,0.18000
38.66666667,0.18470
39,0.18170
39.33333333,0.18100
39.66666667,0.18020
40,0.18170
40.33333333,0.18170
40.66666667,0.17590
41,0.23910
41.33333333,0.21930
41.66666667,0.21780
42,0.21240
42.33333333,0.20330
42.66666667,0.21970
43,0.21970
43.33333333,0.21260
43.66666667,0.21490
44,0.21110
44.33333333,0.21180
44.66666667,0.20950
45,0.20180
45.33333333,0.20100
45.66666667,0.20940
46,0.19110
46.33333333,0.20810
46.66666667,0.20410
47,0.20100
47.33333333,0.20260
47.66666667,0.20800
48,0.20950
48.33333333,0.20640
48.66666667,0.19790
49,0.20030
49.33333333,0.20640
49.66666667,0.21980
0.333333333,0.00870
0.666666667,0.00540
1,0.00650
1.333333333,0.01010
1.666666667,0.00900
2,0.00840
2.333333333,0.00790
2.666666667,0.00680
3,0.01340
3.333333333,0.00870
3.666666667,0.02020
4,0.02290
4.333333333,0.04310
4.666666667,0.02100
5,0.02070
5.333333333,0.01760
5.666666667,0.02960
6,0.01820
6.333333333,0.02290
6.666666667,0.02090
7,0.02120
7.333333333,0.02730
7.666666667,0.02570
8,0.02960
8.333333333,0.03090
8.666666667,0.03070
9,0.03140
9.333333333,0.02840
9.666666667,0.03310
10,0.03400
10.33333333,0.02980
10.66666667,0.03450
11,0.04030
11.33333333,0.03990
11.66666667,0.03930
12,0.03930
12.33333333,0.03710
12.66666667,0.04250
13,0.04410
13.33333333,0.04140
13.66666667,0.03770
14,0.04150
14.33333333,0.04790
14.66666667,0.04560
15,0.04290
15.33333333,0.04620
15.66666667,0.04410
16,0.04670
16.33333333,0.04510
16.66666667,0.04620
17,0.04620
17.33333333,0.04610
17.66666667,0.03950
18,0.04580
18.33333333,0.04630
18.66666667,0.04620
19,0.04790
19.33333333,0.05180
19.66666667,0.05630
20,0.05100
20.33333333,0.06170
20.66666667,0.06060
21,0.05640
21.33333333,0.05630
21.66666667,0.05200
22,0.05450
22.33333333,0.05470
22.66666667,0.06940
23,0.06240
23.33333333,0.06350
23.66666667,0.06570
24,0.06460
24.33333333,0.06620
24.66666667,0.06950
25,0.06460
25.33333333,0.06240
25.66666667,0.06300
26,0.06080
26.33333333,0.07230
26.66666667,0.05740
27,0.06660
27.33333333,0.06120
27.66666667,0.05360
28,0.05780
28.33333333,0.05640
28.66666667,0.05640
29,0.07280
29.33333333,0.06620
29.66666667,0.07060
30,0.07060
30.33333333,0.07230
30.66666667,0.07060
31,0.07620
31.33333333,0.07450
31.66666667,0.07230
32,0.07010
32.33333333,0.06680
32.66666667,0.06020
33,0.06670
33.33333333,0.07010
33.66666667,0.06900
34,0.06630
34.33333333,0.07060
34.66666667,0.07830
35,0.08160
35.33333333,0.08160
35.66666667,0.08220
36,0.08440
36.33333333,0.08160
36.66666667,0.08440
37,0.07890
37.33333333,0.08660
37.66666667,0.07560
38,0.07890
38.33333333,0.07670
38.66666667,0.07670
39,0.07560
39.33333333,0.08440
39.66666667,0.08770
40,0.08050
40.33333333,0.08550
40.66666667,0.08110
41,0.08220
41.33333333,0.07770
41.66666667,0.07670
42,0.07450
42.33333333,0.08550
42.66666667,0.08000
43,0.07670
43.33333333,0.07890
43.66666667,0.07120
44,0.06790
44.33333333,0.06900
44.66666667,0.06460
45,0.06400
45.33333333,0.06350
45.66666667,0.06130
2,0.00070
2.333333333,0.00800
2.666666667,0.01020
3,0.01800
3.333333333,0.02160
3.666666667,0.03200
4,0.03370
4.333333333,0.03820
4.666666667,0.02720
5,0.05120
5.333333333,0.04760
5.666666667,0.03410
6,0.02120
6.333333333,0.04470
6.666666667,0.03390
7,0.04280
7.333333333,0.04830
7.666666667,0.07970
8,0.06460
8.333333333,0.06510
8.666666667,0.06070
9,0.05850
9.333333333,0.05400
9.666666667,0.06340
10,0.06010
10.33333333,0.05840
10.66666667,0.14200
11,0.07500
11.33333333,0.05360
11.66666667,0.05200
12,0.05700
12.33333333,0.06020
12.66666667,0.07230
13,0.07500
13.33333333,0.06300
13.66666667,0.08820
14,0.09260
14.33333333,0.08990
14.66666667,0.09000
15,0.08950
15.33333333,0.08930
15.66666667,0.10250
16,0.09960
16.33333333,0.10580
16.66666667,0.10450
17,0.12680
17.33333333,0.11410
17.66666667,0.11800
18,0.11740
18.33333333,0.11740
18.66666667,0.11910
19,0.11970
19.33333333,0.12190
19.66666667,0.12530
20,0.12340
20.33333333,0.12670
20.66666667,0.13120
21,0.13340
21.33333333,0.13850
21.66666667,0.13900
22,0.13900
22.33333333,0.14240
22.66666667,0.14500
23,0.14600
23.33333333,0.14650
23.66666667,0.14900
24,0.14000
24.33333333,0.14950
24.66666667,0.13660
25,0.14960
25.33333333,0.14950
25.66666667,0.16040
26,0.16260
26.33333333,0.17590
26.66666667,0.18620
27,0.19320
27.33333333,0.19610
27.66666667,0.19490
28,0.20530
28.33333333,0.20300
28.66666667,0.20760
29,0.21430
29.33333333,0.20760
29.66666667,0.20640
30,0.20530
30.33333333,0.20230
30.66666667,0.20570
31,0.20340
31.33333333,0.19650
31.66666667,0.20410
32,0.20760
32.33333333,0.20690
32.66666667,0.22240
33,0.20840
33.33333333,0.21060
33.66666667,0.21730
34,0.20460
34.33333333,0.22070
34.66666667,0.21010
35,0.22780
35.33333333,0.22200
35.66666667,0.22400
36,0.23630
36.33333333,0.23430
36.66666667,0.24580
37,0.24690
37.33333333,0.24600
37.66666667,0.24160
38,0.24210
38.33333333,0.24160
38.66666667,0.23930
39,0.23330
39.33333333,0.23380
39.66666667,0.23660
40,0.21920
40.33333333,0.23120
40.66666667,0.23720
41,0.24100
41.33333333,0.25430
41.66666667,0.25490
42,0.25840
42.33333333,0.25530
42.66666667,0.25640
43,0.25580
43.33333333,0.25890
43.66666667,0.25730
44,0.25730
44.33333333,0.25950
44.66666667,0.26170
45,0.26110
45.33333333,0.26340
45.66666667,0.26580
46,0.26280
46.33333333,0.26340
46.66666667,0.26450
47,0.26820
47.33333333,0.26570
47.66666667,0.26760
48,0.26930
0.167,0.00360
0.333,0.00750
0.500,0.00240
0.667,0.00030
0.833,0.00120
1.000,0.00770
1.167,0.01070
1.000,0.01080
1.500,0.01350
1.667,0.01700
1.833,0.02040
2.000,0.02480
2.167,0.02820
2.333,0.03130
2.500,0.03660
2.667,0.04020
2.833,0.04500
2.667,0.04440
3.167,0.04780
3.333,0.04690
3.500,0.04920
3.667,0.05060
3.833,0.05420
4.000,0.05700
4.167,0.05890
4.333,0.06160
4.500,0.06190
4.333,0.06380
4.833,0.06440
5.000,0.06580
5.167,0.06820
5.333,0.06940
5.500,0.07130
5.667,0.07400
5.833,0.07590
6.000,0.07730
6.167,0.07880
6.000,0.08150
6.500,0.08380
6.667,0.08420
6.833,0.08700
7.000,0.08820
7.167,0.09040
7.333,0.09080
7.500,0.09370
7.667,0.09480
7.833,0.09660
7.667,0.09890
8.167,0.10040
8.333,0.10220
8.500,0.10360
8.667,0.10670
8.833,0.10720
9.000,0.10860
9.167,0.11000
9.333,0.11230
9.500,0.11470
9.667,0.11570
9.833,0.11660
10.000,0.11860
10.167,0.12140
10.333,0.12250
10.500,0.12370
10.667,0.12550
10.833,0.12760
11.000,0.12930
11.167,0.13050
11.333,0.13270
11.500,0.13460
11.667,0.13560
11.833,0.13680
12.000,0.13870
12.167,0.13980
12.333,0.14080
12.500,0.14170
12.667,0.14360
12.833,0.13110
13.000,0.13810
13.167,0.13810
13.333,0.14160
13.500,0.14320
13.667,0.14400
10.500,0.14520
14.000,0.14640
14.167,0.14820
14.333,0.14940
14.500,0.14990
14.667,0.14950
14.833,0.15010
15.000,0.15130
15.167,0.15410
15.333,0.15580
0.333,0.00290
0.833,0.00480
1.000,0.01000
1.167,0.00810
1.333,0.00800
1.500,0.00690
1.667,0.00500
1.833,0.00270
2.000,0.00130
8.167,0.00100
8.333,0.00210
8.500,0.00370
8.667,0.00430
8.833,0.00610
9.000,0.00840
9.167,0.00960
9.333,0.01070
9.500,0.01300
9.667,0.01370
9.833,0.01560
10.000,0.01690
10.167,0.01760
10.333,0.02030
10.500,0.02160
10.667,0.02240
10.833,0.02380
11.000,0.02490
11.167,0.02600
11.333,0.02790
11.500,0.02940
11.667,0.03090
11.833,0.03200
12.000,0.03370
12.167,0.03500
12.333,0.03550
12.500,0.03810
12.667,0.03930
12.833,0.04100
13.000,0.04240
13.167,0.04310
13.333,0.04440
13.500,0.04560
13.667,0.04680
13.833,0.04890
14.000,0.04970
14.167,0.05130
14.333,0.05260
14.500,0.05370
14.667,0.05500
14.833,0.05650
15.000,0.05790
15.167,0.05960
15.333,0.06180
15.500,0.06250
15.667,0.06420
15.833,0.06630
16.000,0.06800
16.167,0.07790
16.333,0.09140
16.500,0.10150
16.667,0.10550
16.833,0.10920
17.000,0.10980
17.167,0.10490
17.333,0.10290
17.500,0.10190
17.667,0.10060
17.833,0.10110
18.000,0.10330
18.167,0.10390
0.167,0.00290
0.333,0.00930
0.500,0.00290
0.667,0.00210
1.000,0.00110
1.333,0.00320
1.500,0.00520
1.667,0.00370
1.833,0.00600
2.000,0.00850
2.167,0.01020
2.333,0.01140
2.500,0.01290
2.667,0.01510
2.833,0.00730
3.000,0.01310
3.167,0.01040
3.333,0.00960
3.500,0.01240
3.667,0.01130
3.833,0.01490
4.000,0.01940
4.167,0.02270
4.333,0.02780
4.500,0.02930
4.666,0.03170
4.833,0.03430
5.000,0.03580
5.167,0.04010
5.333,0.04400
5.500,0.04610
5.667,0.04760
5.833,0.04950
6.000,0.05150
6.167,0.05260
6.333,0.05370
6.500,0.05580
6.667,0.05810
6.833,0.05890
7.000,0.06020
7.167,0.06180
7.333,0.06320
7.500,0.06440
7.667,0.06620
7.833,0.06690
8.000,0.06960
8.167,0.07100
8.333,0.07320
8.500,0.07490
8.667,0.07560
8.833,0.07800
9.000,0.07920
9.167,0.08120
9.333,0.08300
9.500,0.08570
9.667,0.08820
9.833,0.08940
10.000,0.09130
10.167,0.09360
10.333,0.09580
10.500,0.09620
10.667,0.09760
10.833,0.09990
11.000,0.10180
11.167,0.10220
11.333,0.10450
11.500,0.10670
11.667,0.10970
11.833,0.10900
12.000,0.11070
12.167,0.11240
12.333,0.11420
12.500,0.11630
12.667,0.11720
12.833,0.11840
13.000,0.12050
13.167,0.12220
13.333,0.12500
13.500,0.12640
13.667,0.12780
13.833,0.13130
14.000,0.13410
14.167,0.13550
14.333,0.13610
14.500,0.13850
14.667,0.13810
14.833,0.13950
15.000,0.14100
15.167,0.14270
15.333,0.14400
15.500,0.14690
15.667,0.14940
15.833,0.15210
16.000,0.15170
16.167,0.15160
16.333,0.15410
16.500,0.15440
0.167,0.00230
0.333,0.00500
0.500,0.00810
0.667,0.01020
0.833,0.01380
1.000,0.01510
1.167,0.01220
1.333,0.01500
1.500,0.01680
1.667,0.01800
1.833,0.01810
2.000,0.01920
2.167,0.01820
2.333,0.01700
2.500,0.01470
2.667,0.01470
2.833,0.01100
3.000,0.00900
3.167,0.00950
3.333,0.00920
3.500,0.00610
3.667,0.00250
3.833,0.00060
6.000,0.00770
11.833,0.00060
12.000,0.00090
12.167,0.00210
12.333,0.00310
12.500,0.00380
12.667,0.00430
12.833,0.00560
13.000,0.00580
13.167,0.00700
13.333,0.00790
13.500,0.00850
13.667,0.00920
13.833,0.00930
14.000,0.01040
14.167,0.01100
14.333,0.01220
14.500,0.01310
14.667,0.01450
14.833,0.01480
15.000,0.01600
15.167,0.01650
15.333,0.01770
15.500,0.01780
15.667,0.01870
15.833,0.01890
16.000,0.02060
16.167,0.02170
16.333,0.02160
16.500,0.02270
16.667,0.02320
16.833,0.02430
17.000,0.02500
17.167,0.02530
17.333,0.02620
17.500,0.02630
17.667,0.02870
17.833,0.02780
0.167,0.00129
1.167,0.01959
1.667,0.02010
5.667,0.00019
5.833,0.00112
6.000,0.00158
6.167,0.00345
6.333,0.00433
6.500,0.00406
6.667,0.00592
6.833,0.00671
7.000,0.00809
7.167,0.00921
7.333,0.01051
7.500,0.01115
7.667,0.01239
7.833,0.01314
8.000,0.01481
8.167,0.01613
8.333,0.01756
8.500,0.01855
8.667,0.01884
8.833,0.02035
9.000,0.02191
9.167,0.02318
9.333,0.02414
9.500,0.02478
9.667,0.02542
9.833,0.02682
10.000,0.02889
10.167,0.02982
10.333,0.03134
10.500,0.03283
10.667,0.03395
10.833,0.03423
11.000,0.03505
11.167,0.03772
11.333,0.03906
11.500,0.04038
11.667,0.04188
11.833,0.04460
12.000,0.04508
12.167,0.04657
12.333,0.04711
12.500,0.04994
12.667,0.05061
12.833,0.05235
13.000,0.05220
13.167,0.05401
13.333,0.05499
13.500,0.05631
13.667,0.05825
13.833,0.05931
14.000,0.06036
14.167,0.06262
14.333,0.06535
14.500,0.06520
14.667,0.06682
14.833,0.06706
15.000,0.06795
15.167,0.07054
15.333,0.07219
15.500,0.07305
15.667,0.07466
15.833,0.07539
16.000,0.07742
16.167,0.07830
16.333,0.07846
16.500,0.08138
16.667,0.06701
16.833,0.07725
17.000,0.07851
17.167,0.08138
17.333,0.08320
17.500,0.08384
17.667,0.08549
17.833,0.08733
18.000,0.08956
18.167,0.08987
18.333,0.09139
18.500,0.09288
18.667,0.09308
18.833,0.09403
19.000,0.09549
19.167,0.09571
19.333,0.09790
19.500,0.09812
19.667,0.09907
19.833,0.10030
20.000,0.09994
20.167,0.10162
20.333,0.10200
20.500,0.10321
20.667,0.10339
20.833,0.10343
21.000,0.10440
21.167,0.10573
21.333,0.10557
21.500,0.10566
21.667,0.10702
21.833,0.10779
22.000,0.10832
22.167,0.10062
22.333,0.10378
22.500,0.10521
22.667,0.10620
22.833,0.10738
23.000,0.10787
23.167,0.10860
23.333,0.10965
23.500,0.11062
23.667,0.10094
23.833,0.10703
24.000,0.10881
24.167,0.10957
24.333,0.11038
24.500,0.11131
24.667,0.11232
24.833,0.11357
25.000,0.11422
25.167,0.11555
25.333,0.11640
25.500,0.11794
25.667,0.11818
25.833,0.11919
26.000,0.11999
26.167,0.12060
26.333,0.12137
26.500,0.12193
26.667,0.12302
26.833,0.12374
27.000,0.12503
27.167,0.12564
17.333,0.12571
27.500,0.12729
27.667,0.12874
27.833,0.12934
28.000,0.13063
28.167,0.13111
0.167,0.00090
0.333,0.00470
0.500,0.00700
0.667,0.01000
0.833,0.01580
1.000,0.01990
1.167,0.02360
1.333,0.02850
1.500,0.03020
1.667,0.03210
1.833,0.03200
2.000,0.03270
2.167,0.03610
2.333,0.03760
2.500,0.03830
2.667,0.04070
2.833,0.03970
3.000,0.04150
3.167,0.04260
3.333,0.04360
3.500,0.03710
3.667,0.03990
3.833,0.04230
4.000,0.04150
4.167,0.04610
4.333,0.04330
4.500,0.04820
4.667,0.04760
4.833,0.04710
5.000,0.05030
5.167,0.05520
5.333,0.05740
5.500,0.05440
5.667,0.04970
5.833,0.05290
6.000,0.05260
6.167,0.05280
6.333,0.05220
6.500,0.04970
6.667,0.04600
6.833,0.04340
7.000,0.04310
7.167,0.04380
7.333,0.04520
7.500,0.04210
7.667,0.04190
7.833,0.04330
8.000,0.04440
8.167,0.04280
8.333,0.04530
8.500,0.04540
8.667,0.04540
8.833,0.04560
9.000,0.04620
9.167,0.04840
9.333,0.04910
9.500,0.05100
9.667,0.04980
9.833,0.05140
10.000,0.05110
10.167,0.05190
10.333,0.05200
10.500,0.05400
10.667,0.05680
10.833,0.05670
11.000,0.05840
11.167,0.05860
11.333,0.05370
11.500,0.05530
11.667,0.05750
11.833,0.05810
12.000,0.05910
12.167,0.05850
12.333,0.06130
12.500,0.06250
12.667,0.06660
12.833,0.06540
13.000,0.06850
13.167,0.06820
13.333,0.06970
13.500,0.07350
13.667,0.07400
13.833,0.07650
14.000,0.07560
14.167,0.07640
14.333,0.07840
14.500,0.07610
14.667,0.07650
14.833,0.07970
15.000,0.08650
15.167,0.08700
15.333,0.08710
15.500,0.08560
15.667,0.08660
15.833,0.08820
16.000,0.08430
16.167,0.08640
16.333,0.08800
16.500,0.09110
16.667,0.09130
16.833,0.08830
17.000,0.08780
17.167,0.08760
17.333,0.09030
17.500,0.08970
17.667,0.08880
17.833,0.08910
18.000,0.08950
18.167,0.09170
18.333,0.09260
18.500,0.09190
18.667,0.09410
18.833,0.09570
19.000,0.10250
19.167,0.10570
19.333,0.10880
19.500,0.10800
19.667,0.10970
19.833,0.10940
20.000,0.11030
20.167,0.11210
20.333,0.11340
20.500,0.11430
20.667,0.11470
20.833,0.11710
21.000,0.11810
21.167,0.11950
21.333,0.12050
21.500,0.12070
21.667,0.12060
21.833,0.12180
22.000,0.12230
22.167,0.12330
22.333,0.12410
22.500,0.12420
22.667,0.12570
22.833,0.13770
23.000,0.13740
23.167,0.13720
23.333,0.13880
0.167,0.00140
0.333,0.00510
1.000,0.00020
1.166,0.00890
1.333,0.01300
1.500,0.01590
1.667,0.01800
1.833,0.01960
2.000,0.02020
2.167,0.02040
2.333,0.03350
2.500,0.02510
2.667,0.02670
2.833,0.02700
3.000,0.02810
3.167,0.02830
3.333,0.03020
3.500,0.03100
3.667,0.03100
3.833,0.03260
4.000,0.03300
4.167,0.03410
4.333,0.03720
4.500,0.03730
4.667,0.03850
4.833,0.03850
5.000,0.03930
5.167,0.03920
5.333,0.04050
5.500,0.04680
5.667,0.04160
5.833,0.04060
6.000,0.04040
6.167,0.04020
6.333,0.04140
6.500,0.04010
6.667,0.04010
6.833,0.04030
7.000,0.04110
7.167,0.04270
7.500,0.04340
7.667,0.04380
7.833,0.04430
8.000,0.04530
8.167,0.04540
8.333,0.04500
8.500,0.04710
8.667,0.04800
8.833,0.04860
9.000,0.04840
9.167,0.04980
9.333,0.04970
9.500,0.05060
9.667,0.05110
9.833,0.05050
10.000,0.05330
10.167,0.05290
10.333,0.05470
10.500,0.05400
10.667,0.05370
10.833,0.05440
11.000,0.05510
11.167,0.05560
11.333,0.05770
11.500,0.05660
11.667,0.05910
11.833,0.05850
12.000,0.05870
12.167,0.05940
12.333,0.05970
12.500,0.06120
12.667,0.06110
12.833,0.06250
13.000,0.06270
13.167,0.06350
13.333,0.06490
13.500,0.06450
13.667,0.06400
13.833,0.06610
14.000,0.06410
14.167,0.06660
14.333,0.06520
14.500,0.06590
14.667,0.06600
14.833,0.06630
15.000,0.06690
15.167,0.06780
15.333,0.06930
15.500,0.06460
15.667,0.06430
15.833,0.06460
16.000,0.06480
16.167,0.06590
16.333,0.06770
16.500,0.06660
16.667,0.06720
16.833,0.06710
17.000,0.06880
17.167,0.06580
17.333,0.06570
17.500,0.06470
17.667,0.06590
17.833,0.06820
18.000,0.06560
18.167,0.06720
18.333,0.06590
18.500,0.06440
18.667,0.06520
18.833,0.06500
19.000,0.06630
19.167,0.06540
19.333,0.06650
19.500,0.06520
19.333,0.06600
19.833,0.06560
20.000,0.06340
20.167,0.06410
20.333,0.06360
20.500,0.06530
20.667,0.06750
20.833,0.07060
21.000,0.07130
21.167,0.07270
21.333,0.07140
21.500,0.06900
21.667,0.06990
21.833,0.07020
22.000,0.06940
22.167,0.06880
22.333,0.06970
22.500,0.06930
22.667,0.07090
22.833,0.06810
22.667,0.06880
23.167,0.06900
23.333,0.07000
23.500,0.07030
23.667,0.06960
23.833,0.06870
24.000,0.06980
24.167,0.06810
24.333,0.06910
24.500,0.06820
24.667,0.06940
24.833,0.06690
25.000,0.06800
25.167,0.06700
25.333,0.06850
25.500,0.06850
25.667,0.06800
25.833,0.06810
26.000,0.06750
26.167,0.06720
26.333,0.06760
26.500,0.06910
26.667,0.06880
26.833,0.06790
27.000,0.06860
27.167,0.06690
27.333,0.06740
27.500,0.06800
27.667,0.06860
27.833,0.06760
28.000,0.06880
28.167,0.06880
28.333,0.06870
28.500,0.06830
28.667,0.07060
28.833,0.06990
29.000,0.06820
29.167,0.06960
29.333,0.06900
29.500,0.06910
29.667,0.06850
29.833,0.06890
30.000,0.06560
30.167,0.06520
30.333,0.06660
30.500,0.06480
30.667,0.06650
30.833,0.06620
31.000,0.06600
31.167,0.06930
31.333,0.06870
31.500,0.06900
31.667,0.06990
31.833,0.07020
32.000,0.06920
32.167,0.06810
32.333,0.06670
32.500,0.06840
32.667,0.06850
32.833,0.06850
33.000,0.06940
33.167,0.06890
33.333,0.06900
33.500,0.06880
33.667,0.06980
33.833,0.07040
34.000,0.06950
34.167,0.06940
34.333,0.06820
34.500,0.06970
34.667,0.06950
34.833,0.06880
35.000,0.07070
35.167,0.07130
35.333,0.07080
35.500,0.07050
35.667,0.07220
35.833,0.07190
36.000,0.07120
36.167,0.07110
36.333,0.07100
36.500,0.07090
36.667,0.07120
36.833,0.07140
37.000,0.07140
37.167,0.07080
37.333,0.07130
37.500,0.07170
37.667,0.07240
37.833,0.07190
37.667,0.07090
38.167,0.06940
38.333,0.07160
38.500,0.07050
38.667,0.07220
38.833,0.07360
39.000,0.07990
39.167,0.08410
39.333,0.08370
39.500,0.08370
39.333,0.08340
39.833,0.08350
40.000,0.08370
40.167,0.08320
40.333,0.08290
40.500,0.08380
40.667,0.08390
40.833,0.08710
41.000,0.08840
41.167,0.08870
41.000,0.08900
41.500,0.08760
41.667,0.08870
41.833,0.08830
42.000,0.08940
42.167,0.08860
42.333,0.08790
42.500,0.08910
42.667,0.08900
42.833,0.08910
42.667,0.08460
43.167,0.08590
43.333,0.08650
43.500,0.08630
43.667,0.08490
43.833,0.08450
44.000,0.08560
44.167,0.08590
44.333,0.08460
44.500,0.08600
44.333,0.08510
44.833,0.08610
0.333,0.00120
0.500,0.00670
0.833,0.00540
1.000,0.01330
1.167,0.01720
1.333,0.02020
1.500,0.03020
1.667,0.03010
1.833,0.03260
2.000,0.03190
2.167,0.03110
2.333,0.03440
2.500,0.03260
2.667,0.03540
2.833,0.03460
3.000,0.03730
3.167,0.03930
3.333,0.04040
3.500,0.04120
3.667,0.04260
3.833,0.04490
4.000,0.04650
4.167,0.05010
4.333,0.05190
4.500,0.05380
4.667,0.05620
4.833,0.05720
5.000,0.06010
5.167,0.05720
5.333,0.06810
5.500,0.08230
5.667,0.09050
5.833,0.09460
6.000,0.08930
6.167,0.09250
6.333,0.09340
6.500,0.09300
6.667,0.09500
6.833,0.09540
7.000,0.09840
7.167,0.10080
7.333,0.10040
7.500,0.10030
7.667,0.10450
7.833,0.10790
8.000,0.11480
8.167,0.09850
8.333,0.09720
8.500,0.09010
8.667,0.07220
8.833,0.06360
9.000,0.06390
9.167,0.06110
9.333,0.05740
9.500,0.05640
9.667,0.05450
9.833,0.05390
10.000,0.05490
10.167,0.05800
10.333,0.06070
10.500,0.06040
10.667,0.05760
10.833,0.06000
11.000,0.06080
11.167,0.06190
11.333,0.06130
11.500,0.05960
11.667,0.06010
11.833,0.05960
12.000,0.05940
12.167,0.05810
12.333,0.05860
12.500,0.05430
12.667,0.05920
12.833,0.05780
13.000,0.06050
13.167,0.05530
13.333,0.05580
13.500,0.05910
13.667,0.06620
13.833,0.07340
14.000,0.07780
14.167,0.07880
14.333,0.08750
14.500,0.08850
14.667,0.08720
14.833,0.08700
15.000,0.08980
15.167,0.08080
15.333,0.07960
15.500,0.08510
15.667,0.08190
15.833,0.08450
16.000,0.08230
16.167,0.08350
16.333,0.08220
16.500,0.08440
16.667,0.08390
16.833,0.08690
17.000,0.08640
17.167,0.09140
17.333,0.09150
17.500,0.09590
17.667,0.09990
17.833,0.10000
18.000,0.10230
18.167,0.10080
18.333,0.10350
18.500,0.10240
18.667,0.09960
18.833,0.09980
19.000,0.09510
19.167,0.10020
19.333,0.09920
19.500,0.10060
19.667,0.10440
19.833,0.10450
20.000,0.11110
20.167,0.10640
20.333,0.10900
20.500,0.11160
20.667,0.10910
20.833,0.10890
21.000,0.11170
21.167,0.11100
21.333,0.10950
21.500,0.11000
21.667,0.10810
21.833,0.10910
22.000,0.10930
22.167,0.10870
22.333,0.10960
22.500,0.10780
22.667,0.13160
22.833,0.13270
23.000,0.13250
23.167,0.13130
23.333,0.13390
23.500,0.13520
23.667,0.13810
23.833,0.13630
24.000,0.13590
24.167,0.13990
24.333,0.13940
24.500,0.13870
24.667,0.14120
24.833,0.14040
25.000,0.14550
25.167,0.14670
25.333,0.14860
25.500,0.15240
25.667,0.16060
25.833,0.16330
26.000,0.16530
26.167,0.16650
26.333,0.16760
26.500,0.16830
26.667,0.16650
26.833,0.16710
27.000,0.16760
27.167,0.15810
27.333,0.16040
27.500,0.16120
27.667,0.16200
27.833,0.16110
28.000,0.16430
28.167,0.16670
28.333,0.16400
28.500,0.16310
28.667,0.16480
28.833,0.16770
29.000,0.16630
29.167,0.16810
29.333,0.17450
29.500,0.15640
29.667,0.15910
29.833,0.15580
30.000,0.15530
30.167,0.15920
30.333,0.15400
30.500,0.15620
30.667,0.15770
30.833,0.15720
31.000,0.15440
31.167,0.15370
31.333,0.15540
31.500,0.15450
31.667,0.15530
31.833,0.15060
32.000,0.14360
32.167,0.14370
32.333,0.14560
32.500,0.14570
32.667,0.13860
32.833,0.12800
32.667,0.12390
33.167,0.12770
33.333,0.12630
33.500,0.12830
33.667,0.12750
33.833,0.12560
34.000,0.12690
34.167,0.12910
34.333,0.12820
34.500,0.12910
34.667,0.12790
34.833,0.12750
35.000,0.12620
35.167,0.12730
35.333,0.12750
35.500,0.12510
35.667,0.12200
35.833,0.12200
36.000,0.12340
36.167,0.12380
36.000,0.12330
36.500,0.12380
36.667,0.12320
36.833,0.12270
37.000,0.12380
37.167,0.12000
37.333,0.12000
37.500,0.12050
37.667,0.12320
37.833,0.12260
38.000,0.12230
38.167,0.12210
38.333,0.12410
38.500,0.12070
38.667,0.12390
38.833,0.12220
39.000,0.12310
39.167,0.12440
39.333,0.12130
39.500,0.12570
39.667,0.12430
39.833,0.12690
40.000,0.12080
40.167,0.12280
40.333,0.12330
40.500,0.12530
40.667,0.12400
40.833,0.12510
41.000,0.12510
41.167,0.12500
41.333,0.12390
41.500,0.12370
41.667,0.12640
41.833,0.12320
42.000,0.12390
42.167,0.12400
42.333,0.12470
42.500,0.12570
42.667,0.12350
42.833,0.12630
42.667,0.12630
43.167,0.12290
43.333,0.12350
43.500,0.11950
43.667,0.12200
43.833,0.12360
44.000,0.12390
44.167,0.12300
44.667,0.12490
44.500,0.12530
44.333,0.12710
44.833,0.12830
45.000,0.13120
45.167,0.13480
45.330,0.13760
45.500,0.13560
45.667,0.13600
45.833,0.13840
46.000,0.13760
46.167,0.13920
46.333,0.13790
46.500,0.13950
46.667,0.13460
46.833,0.13520
47.000,0.13870
47.167,0.13660
47.333,0.13850
47.500,0.13720
47.667,0.14120
47.833,0.13910
48.000,0.13870
48.167,0.13760
48.333,0.14000
48.500,0.13910
48.667,0.13940
48.833,0.13700
49.000,0.13920
49.167,0.13900
49.333,0.13670
49.500,0.13620
49.667,0.13710
49.833,0.13650
50.000,0.13580
50.167,0.13640
50.333,0.13570
50.500,0.13510
50.667,0.13620
50.833,0.13720
51.000,0.13720
51.167,0.13890
51.333,0.13890
51.500,0.13980
51.667,0.13960
51.833,0.14020
52.000,0.14030
52.167,0.13870
52.333,0.14000
52.500,0.13970
52.667,0.14010
52.833,0.13660
53.000,0.13700
53.167,0.13810
53.333,0.13850
53.500,0.14050
53.667,0.14160
53.833,0.14350
54.000,0.14320
54.167,0.14390
54.333,0.14360
54.500,0.14460
54.667,0.14520
54.833,0.14500
55.000,0.14590
55.167,0.14560
55.333,0.14570
55.500,0.14660
55.667,0.14800
55.833,0.14860
56.000,0.14890
56.167,0.14570
56.333,0.14780
56.500,0.14620
56.667,0.14760
56.833,0.14820
57.000,0.14880
57.167,0.15240
57.333,0.15400
57.500,0.15020
57.667,0.15300
57.833,0.15660
58.000,0.15310
58.167,0.15390
58.333,0.15890
58.500,0.15850
58.667,0.15610
58.833,0.15850
59.000,0.15740
59.167,0.16130
59.333,0.16000
59.500,0.16610
59.667,0.16240
59.833,0.16520
60.000,0.16460
60.167,0.16430
60.333,0.16190
60.500,0.16560
60.667,0.16570
60.833,0.16660
61.000,0.16950
61.167,0.16940
61.000,0.17460
61.500,0.17590
61.667,0.17810
61.833,0.17770
62.000,0.17600
62.167,0.17900
62.333,0.17950
62.500,0.17750
62.667,0.18280
62.833,0.18470
63.000,0.18580
63.167,0.16540
60.000,0.18440
63.500,0.18500
63.667,0.18740
63.833,0.18930
64.000,0.19410
64.167,0.19140
64.333,0.19730
64.500,0.19530
64.667,0.19750
64.833,0.20030
65.000,0.20240
65.167,0.20280
65.333,0.20840
65.500,0.21060
65.667,0.20760
65.833,0.21250
66.000,0.21230
66.167,0.21290
66.333,0.21800
66.500,0.21510
66.667,0.21840
66.833,0.22070
67.000,0.22740
67.167,0.23060
67.333,0.22660
67.500,0.22820
67.667,0.22900
67.833,0.23500
68.000,0.23730
68.167,0.23870
68.333,0.24030
68.500,0.24140
68.667,0.24340
68.833,0.24440
69.000,0.24480
69.167,0.24750
69.333,0.26100
69.500,0.26680
69.667,0.26730
69.833,0.26840
70.000,0.26860
70.167,0.26950
70.333,0.26520
70.500,0.26690
70.667,0.26520
70.833,0.26840
71.000,0.26990
71.167,0.26990
71.333,0.27290
71.500,0.27390
71.667,0.27470
71.833,0.27030
72.000,0.26840
72.167,0.27400
72.333,0.27220
72.500,0.27360
72.667,0.27040
72.833,0.27150
73.000,0.27400
73.167,0.27530
73.333,0.27380
73.500,0.26740
73.667,0.26640
73.833,0.26860
74.000,0.26750
74.167,0.26940
74.333,0.26860
74.500,0.27280
74.667,0.27360
74.833,0.27150
75.000,0.27130
75.167,0.27470
0.667,0.00190
0.833,0.00150
1.000,0.00270
1.167,0.00040
1.333,0.00560
1.500,0.00580
1.667,0.00660
2.000,0.00630
2.167,0.01260
3.500,0.00010
3.667,0.00080
3.833,0.00400
4.167,0.00050
4.667,0.00330
4.833,0.00460
5.000,0.00460
5.167,0.00670
5.333,0.00330
5.500,0.00460
5.667,0.00850
5.833,0.00750
6.000,0.00940
6.167,0.00800
6.333,0.01020
6.500,0.01280
6.667,0.01100
6.833,0.00900
7.000,0.00950
7.167,0.00880
7.333,0.01030
7.500,0.01220
7.667,0.01030
7.833,0.01300
8.000,0.01340
8.167,0.01690
8.333,0.01480
8.500,0.01610
8.667,0.01680
8.833,0.01630
9.000,0.01800
9.167,0.01640
9.333,0.01800
9.500,0.01860
9.667,0.02220
9.833,0.02280
10.000,0.02350
10.167,0.01950
10.333,0.02160
10.500,0.02140
10.667,0.02390
10.833,0.02170
11.000,0.02650
11.167,0.02580
11.333,0.02610
11.500,0.02810
11.667,0.02880
11.833,0.03110
12.000,0.03060
12.167,0.03220
12.333,0.02780
12.500,0.02950
12.667,0.03160
12.833,0.03190
13.000,0.03480
13.167,0.03020
13.333,0.03390
13.500,0.03640
13.667,0.03460
13.833,0.03390
14.000,0.03370
14.167,0.03400
14.333,0.03270
14.500,0.03600
14.667,0.03370
14.833,0.03740
15.000,0.03830
15.167,0.03710
15.333,0.03450
15.500,0.03560
15.667,0.03800
15.833,0.03640
16.000,0.04020
16.167,0.03660
16.333,0.03750
16.500,0.03850
16.667,0.03920
16.833,0.03750
17.000,0.03490
17.167,0.03590
17.333,0.03800
17.500,0.03820
17.667,0.03610
17.833,0.03700
18.000,0.03870
18.167,0.03440
18.333,0.03500
18.500,0.03600
18.667,0.03730
18.833,0.03330
19.000,0.02720
19.167,0.02450
19.333,0.02130
19.500,0.02250
19.667,0.02080
19.833,0.03940
20.000,0.04490
20.167,0.04820
20.333,0.04980
20.500,0.04530
20.667,0.04810
20.833,0.04860
21.000,0.04450
21.167,0.04500
21.333,0.04450
21.500,0.04790
21.667,0.05090
21.833,0.04590
22.000,0.04690
22.167,0.04480
22.333,0.04030
22.500,0.04800
22.667,0.04570
22.833,0.04660
23.000,0.04510
23.167,0.04590
23.333,0.04810
23.500,0.04100
23.667,0.04230
23.833,0.03830
24.000,0.04030
24.167,0.04210
24.333,0.04430
24.500,0.04390
24.667,0.04560
24.833,0.04560
25.000,0.04680
25.167,0.05000
25.333,0.04440
25.500,0.04430
25.667,0.04340
25.833,0.04380
26.000,0.04260
26.167,0.04260
26.333,0.04610
26.500,0.04700
26.667,0.04730
26.833,0.04750
27.000,0.04380
27.167,0.04650
27.333,0.04270
27.500,0.04230
27.667,0.04540
27.833,0.04500
27.667,0.04290
28.167,0.04610
28.333,0.04430
28.500,0.04550
28.667,0.04610
28.833,0.04460
29.000,0.04710
29.167,0.04480
29.333,0.04910
29.500,0.04720
29.667,0.04670
29.833,0.04630
30.000,0.06210
30.167,0.06620
30.333,0.06570
30.500,0.06840
30.667,0.06550
30.833,0.07020
31.000,0.07170
31.167,0.06830
31.333,0.07000
31.500,0.06690
31.667,0.07130
31.833,0.06870
32.000,0.06910
32.167,0.06870
32.333,0.06810
32.500,0.06880
32.667,0.06550
32.833,0.06850
33.000,0.06670
33.167,0.06710
33.333,0.07030
33.500,0.06750
33.667,0.07030
33.833,0.06790
34.000,0.06720
34.167,0.06960
34.333,0.06330
34.500,0.06660
34.667,0.07450
34.833,0.07260
35.000,0.06910
35.167,0.07280
35.333,0.06860
35.500,0.07150
35.667,0.07180
35.833,0.06760
36.000,0.06880
36.167,0.06990
36.333,0.07070
36.500,0.07260
36.667,0.06810
36.833,0.07130
37.000,0.07170
37.167,0.06970
37.333,0.07070
37.500,0.06910
37.667,0.07000
37.833,0.06920
38.000,0.07280
38.167,0.07190
38.333,0.07140
38.500,0.07310
38.667,0.07470
38.833,0.06980
39.000,0.07160
39.167,0.07480
39.333,0.07670
39.500,0.07160
39.667,0.07220
39.833,0.07070
40.000,0.06920
40.167,0.07020
40.333,0.07310
40.500,0.06920
40.667,0.07030
40.833,0.07340
41.000,0.07470
41.167,0.06970
41.000,0.07350
41.500,0.07090
41.667,0.07360
41.833,0.07310
42.000,0.07290
42.167,0.07120
42.333,0.07380
42.500,0.07000
42.667,0.07440
42.833,0.07670
42.667,0.07330
43.167,0.07660
43.333,0.07220
43.500,0.07140
43.667,0.07400
43.833,0.07230
44.000,0.07250
44.167,0.07230
44.333,0.07180
44.500,0.07420
44.333,0.07130
44.833,0.07180
45.000,0.07130
45.167,0.06640
45.333,0.07070
45.500,0.07090
45.667,0.07340
45.833,0.07330
46.000,0.06580
46.167,0.06870
46.000,0.06820
46.500,0.06570
46.667,0.06920
46.833,0.07090
47.000,0.07170
47.167,0.07270
47.333,0.07160
47.500,0.07240
47.667,0.07240
47.833,0.07050
48.000,0.07090
48.167,0.07770
48.333,0.07270
48.500,0.07410
48.667,0.06790
48.833,0.07460
49.000,0.07420
49.167,0.07250
49.333,0.07400
49.500,0.07370
49.667,0.07000
49.833,0.07170
50.000,0.07380
50.167,0.07430
50.333,0.06950
50.500,0.07390
50.667,0.07290
50.833,0.07430
51.000,0.07230
51.167,0.07090
51.333,0.07150
51.500,0.07450
51.667,0.07550
51.833,0.07460
52.000,0.07300
52.167,0.07500
52.333,0.07330
52.500,0.07580
52.667,0.07360
52.833,0.07230
53.000,0.07730
53.167,0.07320
53.333,0.07610
53.500,0.07430
53.667,0.07600
53.833,0.07480
54.000,0.07350
54.167,0.07390
54.333,0.07370
54.500,0.07540
54.333,0.07780
54.833,0.07910
55.000,0.07750
55.167,0.07780
55.333,0.07350
55.500,0.07800
55.667,0.07600
55.833,0.07270
56.000,0.07440
56.167,0.07260
56.333,0.07650
56.500,0.08110
56.667,0.07890
56.833,0.07680
57.000,0.07840
57.167,0.07840
57.333,0.08060
57.500,0.07910
57.667,0.07600
57.833,0.07870
58.000,0.07970
58.167,0.07860
58.333,0.08180
58.500,0.06000
58.667,0.07850
58.833,0.07690
59.000,0.07610
59.167,0.08040
59.333,0.08240
59.500,0.08300
59.667,0.08160
59.833,0.08050
60.000,0.08120
60.167,0.08020
60.333,0.08060
60.500,0.08330
60.667,0.08200
60.833,0.07910
61.000,0.06130
61.167,0.08250
61.333,0.08710
61.500,0.08390
61.667,0.08270
61.833,0.08390
62.000,0.08340
62.167,0.08610
62.333,0.08780
62.500,0.08710
62.667,0.06490
62.833,0.08530
63.000,0.08590
63.167,0.08640
63.333,0.08520
63.500,0.08810
63.667,0.08720
63.833,0.08450
64.000,0.08590
64.167,0.08860
64.333,0.08720
64.500,0.09140
64.667,0.08910
64.833,0.08730
65.000,0.08910
65.167,0.08960
65.333,0.08980
65.500,0.09110
65.667,0.09030
65.833,0.09600
66.000,0.10210
66.167,0.10590
66.333,0.10370
66.500,0.10630
66.667,0.10080
66.833,0.09980
67.000,0.09880
67.167,0.09760
67.333,0.10120
67.500,0.10190
67.667,0.09880
67.833,0.10470
68.000,0.10070
68.167,1.39560
68.333,0.10500
68.500,0.10960
68.667,0.10080
68.833,0.11130
69.000,0.10530
69.167,0.10590
69.333,0.10900
69.500,0.10210
69.333,0.10900
69.833,0.10600
70.000,0.10600
70.167,0.10860
70.333,0.11110
70.500,0.10760
70.667,0.10910
70.833,0.10690
4.333,0.00100
4.500,0.00240
4.667,0.00230
4.833,0.00240
5.000,0.00280
5.167,0.00500
5.333,0.00500
5.500,0.00560
5.667,0.00590
5.833,0.00670
6.000,0.00720
6.167,0.00810
6.333,0.00780
6.500,0.00910
6.667,0.01000
6.833,0.01020
7.000,0.01050
7.167,0.01060
7.333,0.01190
7.500,0.01180
7.667,0.01230
7.833,0.01270
8.000,0.01360
8.167,0.01380
8.333,0.01520
8.500,0.01500
8.667,0.01570
8.833,0.01620
9.000,0.01590
9.167,0.01630
9.333,0.01570
9.500,0.01740
9.667,0.01780
9.833,0.01690
10.000,0.01990
10.167,0.02040
10.333,0.02070
10.500,0.02160
10.667,0.02160
10.833,0.02200
11.000,0.02190
11.167,0.02290
11.333,0.02390
11.500,0.02310
11.667,0.02390
11.833,0.02460
12.000,0.02470
12.167,0.02490
12.333,0.02560
12.500,0.02750
12.667,0.02640
12.833,0.02650
13.000,0.02660
13.167,0.02650
13.333,0.02610
13.500,0.02670
13.667,0.02760
13.833,0.02760
14.000,0.02770
14.167,0.02800
14.333,0.02910
14.500,0.02890
14.667,0.02980
14.833,0.02970
15.000,0.03050
15.167,0.03060
15.333,0.03090
15.500,0.03100
15.667,0.03090
15.833,0.03120
16.000,0.03200
16.167,0.03220
16.333,0.03230
16.500,0.03340
16.667,0.03320
16.833,0.03310
17.000,0.03440
17.167,0.03450
17.333,0.03460
17.500,0.03540
17.667,0.03490
17.833,0.03520
18.000,0.03510
18.167,0.03490
18.333,0.03670
18.500,0.03720
18.667,0.04070
18.833,0.04210
19.000,0.04500
19.167,0.04650
19.333,0.04880
19.500,0.04880
19.667,0.04910
19.833,0.04920
20.000,0.04320
20.167,0.04350
20.333,0.04830
20.500,0.04960
20.667,0.04910
20.833,0.04950
21.000,0.04980
21.167,0.05140
21.333,0.04320
21.500,0.04550
21.667,0.04990
21.833,0.04970
22.000,0.05010
22.167,0.05550
22.333,0.05530
22.500,0.06010
22.667,0.06080
22.833,0.05940
23.000,0.05600
23.167,0.06180
23.333,0.05510
23.500,0.05650
23.667,0.05630
23.833,0.05490
24.000,0.05580
24.167,0.05580
24.333,0.05700
24.500,0.05610
24.667,0.05520
24.833,0.05570
25.000,0.05640
25.167,0.05640
25.333,0.05710
25.500,0.05710
25.667,0.05670
25.833,0.05720
26.000,0.05680
26.167,0.05800
26.333,0.05790
26.500,0.05800
26.667,0.05680
26.833,0.05750
27.000,0.05930
27.167,0.05890
27.333,0.05940
27.500,0.05870
27.667,0.05890
27.833,0.05890
28.000,0.06010
28.167,0.06120
28.333,0.05930
28.500,0.06050
28.667,0.06100
28.833,0.06060
29.000,0.06040
29.167,0.06060
29.333,0.06020
29.500,0.06160
29.667,0.06090
29.833,0.06180
30.000,0.06260
30.167,0.06130
30.333,0.06110
30.500,0.06380
30.667,0.06250
30.833,0.06240
31.000,0.06340
31.167,0.06250
31.333,0.06340
31.500,0.06350
31.667,0.06380
31.833,0.06140
32.000,0.06760
32.167,0.07090
32.333,0.07330
32.500,0.07370
32.667,0.07450
32.833,0.07480
33.000,0.07580
33.167,0.06820
33.333,0.07040
33.500,0.07590
33.667,0.07580
33.833,0.07650
34.000,0.07010
34.167,0.07320
34.333,0.07490
34.500,0.07430
34.667,0.07570
34.833,0.07710
35.000,0.07810
35.167,0.07740
35.333,0.07770
35.500,0.07210
35.667,0.07820
35.833,0.07810
36.000,0.08030
36.167,0.07360
36.333,0.07530
36.500,0.07580
36.667,0.07670
36.833,0.07180
37.000,0.07580
37.167,0.07630
37.333,0.07840
37.500,0.07910
37.667,0.07970
37.833,0.07800
38.000,0.08150
38.167,0.08160
38.333,0.08100
38.500,0.08160
38.667,0.08120
38.833,0.07480
39.000,0.07890
39.167,0.07870
39.333,0.07970
39.500,0.07540
39.667,0.08030
39.833,0.07480
40.000,0.07930
40.167,0.08080
40.333,0.07310
40.500,0.07660
40.667,0.07850
40.833,0.07750
41.000,0.07690
41.167,0.07760
41.333,0.07580
41.500,0.07720
41.667,0.07770
41.833,0.07920
42.000,0.07780
42.167,0.07860
42.333,0.07880
42.500,0.07870
42.667,0.07780
42.833,0.07810
43.000,0.07790
43.167,0.07760
43.333,0.07870
43.500,0.07880
43.667,0.08030
43.833,0.08010
44.000,0.08030
44.167,0.08160
44.333,0.07990
44.500,0.07620
44.667,0.07550
44.833,0.08050
45.000,0.07970
45.167,0.08040
45.333,0.08010
45.500,0.08020
45.667,0.08030
45.833,0.08120
46.000,0.08010
46.167,0.08060
46.333,0.08120
46.500,0.08170
46.667,0.08050
46.833,0.08250
47.000,0.08780
47.167,0.08950
47.333,0.08930
47.500,0.08900
47.667,0.08870
47.833,0.08930
48.000,0.06930
48.167,0.08990
48.333,0.08820
48.500,0.08900
48.667,0.08920
48.833,0.08880
49.000,0.08860
49.167,0.08830
49.333,0.08920
49.500,0.09040
49.667,0.09020
49.833,0.09130
50.000,0.09110
50.167,0.08660
50.333,0.08680
50.500,0.08900
50.667,0.09180
50.833,0.08690
51.000,0.08690
51.167,0.08690
51.333,0.08720
51.500,0.08770
51.667,0.09060
51.833,0.08980
52.000,0.09040
52.167,0.09130
52.333,0.08920
52.500,0.09150
52.667,0.09070
52.833,0.08970
53.000,0.08980
53.167,0.09080
53.333,0.09050
53.500,0.09070
53.667,0.09090
53.833,0.09030
54.000,0.09090
54.167,0.09050
54.333,0.09120
54.500,0.09160
54.667,0.09010
54.833,0.09080
55.000,0.09100
55.167,0.09150
55.333,0.09250
55.500,0.09210
55.667,0.09340
55.833,0.09300
56.000,0.09220
56.167,0.09210
56.333,0.09160
56.500,0.09300
56.667,0.09390
56.833,0.09310
57.000,0.09340
57.167,0.09320
57.333,0.09470
57.500,0.09470
57.667,0.09470
57.833,0.09600
57.667,0.09390
58.167,0.09100
58.333,0.09130
58.500,0.09010
58.667,0.08990
58.833,0.09030
59.000,0.08990
59.167,0.08710
59.333,0.08710
59.500,0.08660
59.667,0.08660
59.833,0.08660
60.000,0.08810
60.167,0.08740
60.333,0.08860
60.500,0.08860
60.667,0.08860
60.833,0.08980
61.000,0.08930
61.167,0.08920
61.333,0.08840
61.500,0.08950
61.667,0.08980
61.833,0.09010
62.000,0.09000
62.167,0.09070
62.333,0.09030
62.500,0.08970
62.667,0.09080
62.833,0.09020
63.000,0.09120
63.167,0.08980
63.333,0.09080
63.500,0.09100
63.667,0.09020
63.833,0.09050
64.000,0.09160
64.167,0.09000
64.333,0.09030
64.500,0.09090
64.667,0.09060
64.833,0.09060
65.000,0.09090
65.167,0.09020
65.333,0.09100
65.500,0.09130
65.667,0.09110
65.833,0.09210
66.000,0.09270
66.167,0.09230
66.000,0.09180
66.500,0.09180
66.667,0.09280
66.833,0.09220
67.000,0.09230
67.167,0.09810
67.333,0.10520
67.500,0.10850
67.667,0.11090
67.833,0.11040
68.000,0.11110
68.167,0.11150
68.333,0.11080
68.500,0.11170
68.667,0.11120
68.833,0.11210
69.000,0.11210
69.167,0.11200
69.333,0.10970
69.500,0.10880
69.667,0.11100
69.833,0.11250
70.000,0.10920
70.167,0.11110
70.333,0.11180
70.500,0.11140
70.667,0.11050
70.833,0.11050
71.000,0.10520
71.167,0.10500
71.333,0.10870
71.500,0.10740
71.667,0.10370
71.833,0.10410
72.000,0.10450
72.167,0.10480
72.333,0.10450
72.500,0.10470
72.667,0.10570
72.833,0.10580
73.000,0.10670
73.167,0.10930
73.333,0.11000
73.500,0.11030
73.667,0.10320
73.833,0.10390
74.000,0.10330
74.167,0.10290
74.333,0.10450
74.500,0.10440
74.667,0.10350
74.833,0.10360
75.000,0.10310
75.167,0.10430
75.333,0.10370
75.500,0.10450
75.667,0.10470
75.833,0.10440
76.000,0.10490
76.167,0.10390
76.333,0.10490
76.500,0.10510
76.667,0.10560
76.833,0.10420
77.000,0.10550
77.167,0.10580
77.333,0.10570
77.500,0.10590
77.667,0.10610
77.833,0.10610
78.000,0.10590
78.167,0.10490
78.333,0.10500
78.500,0.10520
78.667,0.10510
78.833,0.10550
79.000,0.10620
79.167,0.10620
79.333,0.10570
79.500,0.10460
79.667,0.10480
79.833,0.10500
80.000,0.10510
80.167,0.10610
80.333,0.10520
80.500,0.10550
80.667,0.10510
80.833,0.10630
81.000,0.10600
81.167,0.10550
81.333,0.10590
78.167,0.10530
81.667,0.10520
81.833,0.10460
82.000,0.10610
82.167,0.10500
82.333,0.10510
82.500,0.10520
82.667,0.10550
82.833,0.10440
83.000,0.10500
83.167,0.10510
83.333,0.10560
83.500,0.10600
83.667,0.10680
83.833,0.10650
84.000,0.10540
84.167,0.10550
84.333,0.10510
84.500,0.10530
84.667,0.10650
84.833,0.10560
85.000,0.10490
85.167,0.10590
85.333,0.10480
85.500,0.10610
85.667,0.10490
85.833,0.10520
86.000,0.10570
86.167,0.10570
86.000,0.10530
86.500,0.10660
86.667,0.10570
86.833,0.10680
87.000,0.10560
87.167,0.10610
87.333,0.10570
87.500,0.10590
87.667,0.10550
87.833,0.10590
88.000,0.10610
88.167,0.10560
88.333,0.10540
88.500,0.10550
88.667,0.10650
88.833,0.10550
89.000,0.10480
89.167,0.10550
89.333,0.10470
89.500,0.10540
89.667,0.10560
89.833,0.10490
90.000,0.10540
90.167,0.10510
90.333,0.10490
90.500,0.10570
90.667,0.10560
90.833,0.10420
91.000,0.10520
91.167,0.10420
91.333,0.10420
91.500,0.10500
91.667,0.10470
91.833,0.10510
92.000,0.10410
92.167,0.10420
92.333,0.10420
92.500,0.10470
92.667,0.10380
92.833,0.10380
93.000,0.10400
93.167,0.10470
93.333,0.10370
93.500,0.10360
93.667,0.10440
93.833,0.10340
94.000,0.10500
94.167,0.10440
94.333,0.10430
94.500,0.10420
94.667,0.10540
94.833,0.10460
95.000,0.10410
95.167,0.10440
95.333,0.06380
95.500,0.11740
95.667,0.11890
95.833,0.11890
96.000,0.11750
96.167,0.11860
96.000,0.11740
96.500,0.11730
93.333,0.11700
96.833,0.11800
97.000,0.11830
97.167,0.11720
97.333,0.11650
97.500,0.11670
97.667,0.11620
97.833,0.11730
94.333,0.11580
98.167,0.11640
98.333,0.11620
98.500,0.11660
98.667,0.11670
98.833,0.11600
99.000,0.11660
99.167,0.11630
99.333,0.11570
99.500,0.11620
99.667,0.11640
99.833,0.11680
100.000,0.11700
100.167,0.11670
100.333,0.11720
100.500,0.11740
100.667,0.11730
100.833,0.11700
101.000,0.11790
101.167,0.11720
101.000,0.11720
101.500,0.11750
101.667,0.11690
101.833,0.11850
102.000,0.11730
102.167,0.11700
102.333,0.11690
102.500,0.11700
102.667,0.11680
102.833,0.11610
103.000,0.11620
103.167,0.11650
103.333,0.11680
103.500,0.11600
103.667,0.11660
103.833,0.11590
104.000,0.11650
104.167,0.11550
104.333,0.11500
104.500,0.11600
104.667,0.11530
104.833,0.11500
105.000,0.11470
105.167,0.11490
105.333,0.11450
105.500,0.11500
105.667,0.11510
105.833,0.11520
106.000,0.11570
106.167,0.11530
106.333,0.11580
106.500,0.11520
106.667,0.11550
106.833,0.11630
107.000,0.11600
107.167,0.11620
107.333,0.11610
107.500,0.11600
107.667,0.11580
107.833,0.11460
108.000,0.11600
108.167,0.11590
108.333,0.11540
108.500,0.11610
108.667,0.11540
108.833,0.11550
109.000,0.11630
109.167,0.11640
109.333,0.11600
109.500,0.11750
109.667,0.11630
109.833,0.11710
110.000,0.11700
110.167,0.11600
110.333,0.11530
110.500,0.11500
110.667,0.11570
110.833,0.11540
111.000,0.11510
111.167,0.11490
111.333,0.11510
111.500,0.11600
111.667,0.11600
111.833,0.11560
112.000,0.11620
112.167,0.11460
112.333,0.11580
145.833,0.11610
112.667,0.11590
112.833,0.11590
113.000,0.11650
113.167,0.11660
113.333,0.11620
113.500,0.11510
110.333,0.11450
113.833,0.11540
114.000,0.11510
114.167,0.11440
114.333,0.11440
114.500,0.11440
114.667,0.11490
114.833,0.11470
115.000,0.11580
115.167,0.11500
115.333,0.11400
115.500,0.11410
115.667,0.11380
115.833,0.11430
116.000,0.11470
116.167,0.11380
116.333,0.11400
116.500,0.11420
116.667,0.11410
116.833,0.11390
117.000,0.11420
117.167,0.11370
117.333,0.11310
117.500,0.11320
117.667,0.11350
117.833,0.11310
118.000,0.11370
118.167,0.11330
118.333,0.11340
118.500,0.11310
118.667,0.11330
118.833,0.11440
119.000,0.11350
119.167,0.11420
119.333,0.11330
119.500,0.11400
119.667,0.11340
119.833,0.11300
120.000,0.11310
120.167,0.11300
120.333,0.11270
120.500,0.11410
120.667,0.11390
120.833,0.11390
121.000,0.11440
121.167,0.11320
121.333,0.11310
121.500,0.11340
121.667,0.11360
121.833,0.11350
122.000,0.11390
122.167,0.11470
122.333,0.11510
122.500,0.11530
122.667,0.11310
122.833,0.11480
123.000,0.11410
123.167,0.11460
123.333,0.11440
123.500,0.11410
123.667,0.11500
123.833,0.11480
124.000,0.11530
124.167,0.11550
124.333,0.11440
124.500,0.11420
124.667,0.11540
124.833,0.11490
125.000,0.11540
125.167,0.11560
125.333,0.11490
125.500,0.11580
125.667,0.11480
125.833,0.11590
126.000,0.11660
126.167,0.11700
126.333,0.11750
126.500,0.11780
126.667,0.11730
126.833,0.11660
127.000,0.11740
127.167,0.11770
127.333,0.11740
127.500,0.11740
127.667,0.11670
127.833,0.11790
128.000,0.11740
128.167,0.11730
128.333,0.11730
128.500,0.11710
128.667,0.11800
128.833,0.11730
129.000,0.11760
129.167,0.11760
129.333,0.11760
129.500,0.11800
129.667,0.11860
129.833,0.11750
130.000,0.11810
130.167,0.11750
130.333,0.11780
130.500,0.11810
130.667,0.11820
130.833,0.11830
131.000,0.11800
131.167,0.11760
131.333,0.11740
131.500,0.11860
131.667,0.11760
131.833,0.11800
132.000,0.11760
132.167,0.11650
132.333,0.11730
132.500,0.11850
132.667,0.11690
132.833,0.11720
133.000,0.11840
133.167,0.11820
133.333,0.11830
133.500,0.11740
133.667,0.11810
133.833,0.11790
134.000,0.11790
134.167,0.11690
134.333,0.11790
134.500,0.11730
101.333,0.11740
134.833,0.11790
101.667,0.11720
135.167,0.11730
135.333,0.11650
135.500,0.11710
135.667,0.11690
135.833,0.11740
136.000,0.11720
136.167,0.11710
136.333,0.11680
136.500,0.11630
136.667,0.11520
136.833,0.11690
137.000,0.11540
137.167,0.11590
137.333,0.11580
104.167,0.11560
104.333,0.11520
104.500,0.11460
138.000,0.11470
138.167,0.11370
105.000,0.11380
138.500,0.11430
105.333,0.11390
138.833,0.11420
139.000,0.11350
139.167,0.11400
139.333,0.11270
139.500,0.11200
139.667,0.11270
139.833,0.11310
140.000,0.11220
140.167,0.11200
140.333,0.11300
140.500,0.11210
140.667,0.11280
140.833,0.11200
141.000,0.11200
141.167,0.11220
141.333,0.11210
141.500,0.11270
141.667,0.11200
141.833,0.11230
142.000,0.11180
142.167,0.11220
142.333,0.11050
142.500,0.11250
142.667,0.11180
142.833,0.11020
143.000,0.10990
143.167,0.10990
143.333,0.11040
143.500,0.10960
143.667,0.11030
143.833,0.11160
144.000,0.11280
144.167,0.11210
144.333,0.11150
147.833,0.11200
144.667,0.11200
144.833,0.11220
145.000,0.11150
145.167,0.11160
145.333,0.11200
0.167,0.00480
0.333,0.00020
0.500,0.00580
0.667,0.01090
0.833,0.01460
1.000,0.01450
1.167,0.02040
1.333,0.02250
1.500,0.01590
1.667,0.02450
1.833,0.02150
2.000,0.03090
2.167,0.02960
2.333,0.03260
2.500,0.03230
2.667,0.03570
2.833,0.03410
3.000,0.03650
3.167,0.03160
3.333,0.03470
3.500,0.03620
3.667,0.03690
3.833,0.03430
4.000,0.03370
4.167,0.04000
4.333,0.03510
4.500,0.04260
4.667,0.04190
4.833,0.04350
5.000,0.04060
5.167,0.04030
5.333,0.04160
5.500,0.04600
5.667,0.04930
5.833,0.05320
6.000,0.05400
6.167,0.05630
6.333,0.06070
6.500,0.06040
6.667,0.06290
6.833,0.06410
7.000,0.06970
7.167,0.07550
7.333,0.07050
7.500,0.07280
7.667,0.07730
7.833,0.07710
8.000,0.08120
8.167,0.08180
8.333,0.08370
8.500,0.08510
8.667,0.08960
8.833,0.08890
9.000,0.09100
9.167,0.09510
9.333,0.09630
9.500,0.10050
9.667,0.09960
9.833,0.10720
10.000,0.10850
10.167,0.11150
10.333,0.11330
10.500,0.11320
10.667,0.11810
10.833,0.11800
11.000,0.12150
11.167,0.12110
11.333,0.12510
11.500,0.12650
11.667,0.13030
11.833,0.13080
12.000,0.13510
12.167,0.13660
12.333,0.13970
12.500,0.14210
12.667,0.14400
12.833,0.14610
13.000,0.14700
13.167,0.14920
13.333,0.14920
13.500,0.14860
13.667,0.15120
13.833,0.15180
14.000,0.14970
10.833,0.15090
14.333,0.15180
14.500,0.15430
14.333,0.15550
14.833,0.15400
15.000,0.15620
15.167,0.15510
15.333,0.15650
15.500,0.15780
15.667,0.15790
15.833,0.15650
16.000,0.15860
16.167,0.15940
16.333,0.15960
16.500,0.16000
16.667,0.16130
16.833,0.16240
17.000,0.16360
17.167,0.16370
17.333,0.16520
17.500,0.16620
17.667,0.16540
17.833,0.18720
18.000,0.17060
1.167,0.00030
1.500,0.00260
1.667,0.00020
1.833,0.00220
2.167,0.00200
2.333,0.00390
2.500,0.00130
3.000,0.00060
3.167,0.00820
3.333,0.00540
3.500,0.00400
3.667,0.00380
3.833,0.00470
4.000,0.00800
4.167,0.00750
4.333,0.01030
4.500,0.00820
4.667,0.00660
4.833,0.00960
5.000,0.01060
5.167,0.00860
5.333,0.01100
5.500,0.00960
5.667,0.00650
5.833,0.01260
6.000,0.00680
6.167,0.00820
6.000,0.00940
6.500,0.01360
6.667,0.00810
6.833,0.00410
7.000,0.00910
7.167,0.00860
7.333,0.01370
7.500,0.01360
7.667,0.00730
7.833,0.01580
8.000,0.01070
8.167,0.01080
8.333,0.00990
8.500,0.01060
8.667,0.00850
8.833,0.00990
9.000,0.00560
9.167,0.01170
9.333,0.00860
9.500,0.00890
9.667,0.01180
9.833,0.00770
10.000,0.01330
10.167,0.00710
10.333,0.01370
10.500,0.00670
10.667,0.01670
10.833,0.00810
11.000,0.01570
11.167,0.00580
11.333,0.00850
11.500,0.00860
11.667,0.00960
11.833,0.01310
12.000,0.01170
12.167,0.00980
12.333,0.00930
12.500,0.01350
11.667,0.01170
12.833,0.01150
13.000,0.01120
13.167,0.01050
13.333,0.00520
13.500,0.01160
13.667,0.01000
13.833,0.00550
14.000,0.01060
14.167,0.00760
14.333,0.00990
14.500,0.01360
14.667,0.01090
14.833,0.02110
15.000,0.01070
15.167,0.00940
15.333,0.01170
15.500,0.00220
15.667,0.00680
15.833,0.01070
16.000,0.00550
16.167,0.00820
16.000,0.01190
16.500,0.01080
16.667,0.00980
16.833,0.00680
17.000,0.00720
17.167,0.01280
17.333,0.01350
17.500,0.00760
17.667,0.00780
17.833,0.01070
16.667,0.00920
18.167,0.00780
18.333,0.01480
18.500,0.00490
18.667,0.01100
18.833,0.00830
19.000,0.01160
19.167,0.01020
19.333,0.01210
19.500,0.01080
18.333,0.01380
19.833,0.01300
20.000,0.01590
20.167,0.01330
20.333,0.01560
20.500,0.01450
20.667,0.00990
20.833,0.00960
21.000,0.01380
21.167,0.01570
20.000,0.01320
21.500,0.01450
21.667,0.01640
21.833,0.01600
22.000,0.01600
22.167,0.01540
22.333,0.01390
22.500,0.01830
22.667,0.01240
22.833,0.01370
21.667,0.01200
23.167,0.01110
23.333,0.01290
23.500,0.01280
23.667,0.01580
23.833,0.00840
24.000,0.01330
24.167,0.01000
24.333,0.01360
24.500,0.01380
23.333,0.01990
24.833,0.01930
25.000,0.01290
25.167,0.01580
25.333,0.01570
25.500,0.01350
25.667,0.01830
25.833,0.01570
26.000,0.01620
26.167,0.01530
26.333,0.01800
26.500,0.01920
26.667,0.01930
26.833,0.01650
27.000,0.01490
27.167,0.01950
27.333,0.01320
27.500,0.01870
27.667,0.01790
27.833,0.01820
28.000,0.02260
28.167,0.01410
28.333,0.01940
28.500,0.01840
28.667,0.01500
28.833,0.01390
29.000,0.02170
29.167,0.01440
29.333,0.01810
29.500,0.01630
29.667,0.01720
29.833,0.02100
30.000,0.01870
30.167,0.02450
30.333,0.01630
27.167,0.01970
27.333,0.02210
30.833,0.01550
31.000,0.01880
31.167,0.02150
31.333,0.01650
31.500,0.02130
31.667,0.01920
31.833,0.01860
32.000,0.02210
32.167,0.01860
32.333,0.01860
32.500,0.01050
32.667,0.02110
32.833,0.01670
33.000,0.02150
33.167,0.01920
33.333,0.02000
33.500,0.01880
33.667,0.01950
33.833,0.01860
34.000,0.02420
34.167,0.01720
34.333,0.01910
34.500,0.01910
34.667,0.02190
34.833,0.02210
35.000,0.02030
35.167,0.02220
35.333,0.02130
35.500,0.01760
35.667,0.02200
35.833,0.01670
36.000,0.01930
36.167,0.02170
36.333,0.02010
36.500,0.02110
36.667,0.02110
36.833,0.02380
37.000,0.02170
37.167,0.01760
37.333,0.02270
37.500,0.02340
37.667,0.01800
37.833,0.02550
38.000,0.02140
38.167,0.02430
38.333,0.01960
38.500,0.02550
38.667,0.02410
38.833,0.02510
39.000,0.02690
39.167,0.02010
39.333,0.02870
39.500,0.02640
39.667,0.02460
39.833,0.02310
40.000,0.02600
40.167,0.02740
40.333,0.02960
40.500,0.02460
40.667,0.02790
40.833,0.02370
41.000,0.01520
41.167,0.01780
41.333,0.01870
41.500,0.01770
41.667,0.01980
41.833,0.01540
42.000,0.02150
42.167,0.02190
42.333,0.02180
42.500,0.01770
42.667,0.02060
42.833,0.01780
43.000,0.02310
43.167,0.02270
43.333,0.02470
43.500,0.02510
43.667,0.02160
43.833,0.02450
44.000,0.02430
44.167,0.02520
44.333,0.02800
44.500,0.02630
44.667,0.02240
44.833,0.01890
45.000,0.02930
45.167,0.02210
45.333,0.02860
45.500,0.02720
45.667,0.03100
45.833,0.02800
46.000,0.03250
46.167,0.02770
46.333,0.02500
46.500,0.02990
46.667,0.02400
46.833,0.02900
47.000,0.02670
47.167,0.03340
47.333,0.02590
47.500,0.02560
47.667,0.03010
47.833,0.03210
48.000,0.03100
48.167,0.03190
48.333,0.03190
48.500,0.03300
48.667,0.02860
48.833,0.03570
49.000,0.03490
49.167,0.03340
49.333,0.02990
49.500,0.03620
49.667,0.03620
49.833,0.03620
50.000,0.03350
50.167,0.02940
50.333,0.03350
50.500,0.02970
50.667,0.03490
50.833,0.03530
51.000,0.03670
51.167,0.03600
51.333,0.03530
51.500,0.03700
51.667,0.04060
51.833,0.03720
52.000,0.03890
52.167,0.03700
52.333,0.03920
52.500,0.03840
52.667,0.03740
52.833,0.03710
53.000,0.04040
53.167,0.04310
53.333,0.03460
53.500,0.03510
53.667,0.03810
53.833,0.03990
54.000,0.04520
54.167,0.04060
54.333,0.04180
54.500,0.04260
54.333,0.04110
54.833,0.04500
55.000,0.04360
55.167,0.04470
55.333,0.04650
55.500,0.04630
55.667,0.04630
55.833,0.04440
56.000,0.04770
56.167,0.04400
56.000,0.04560
56.500,0.04650
56.667,0.04860
56.833,0.04870
57.000,0.04920
57.167,0.05270
57.333,0.04630
57.500,0.04970
57.667,0.05210
57.833,0.05090
58.000,0.05080
58.167,0.05110
58.333,0.04930
58.500,0.04980
58.667,0.05180
58.833,0.05610
59.000,0.05090
59.167,0.05470
59.333,0.05470
59.500,0.05390
59.333,0.05580
59.833,0.05980
60.000,0.05770
60.167,0.05600
60.333,0.05660
60.500,0.06100
60.667,0.05540
60.833,0.05680
61.000,0.05800
61.167,0.06230
61.000,0.06000
61.500,0.05920
61.667,0.06310
61.833,0.06380
62.000,0.06110
62.167,0.06060
62.333,0.06110
62.500,0.06180
62.667,0.06380
62.833,0.06670
63.000,0.06880
63.167,0.07790
60.000,0.07690
60.167,0.07600
63.667,0.07580
60.500,0.07450
64.000,0.07670
60.833,0.07150
64.333,0.07760
64.500,0.07590
64.667,0.07300
64.833,0.07490
65.000,0.07550
65.167,0.07660
65.333,0.07470
65.500,0.07800
65.667,0.07270
65.833,0.07450
66.000,0.07240
66.167,0.07380
66.333,0.07030
66.500,0.07230
66.667,0.07540
66.833,0.07290
67.000,0.07150
67.167,0.07270
67.333,0.07340
67.500,0.07790
67.667,0.07250
67.833,0.07290
68.000,0.07690
68.167,0.07390
68.333,0.07580
68.500,0.07400
68.667,0.07840
68.833,0.07730
69.000,0.07610
69.167,0.07400
69.333,0.07580
69.500,0.07780
69.667,0.07660
69.833,0.07130
70.000,0.07430
70.167,0.07700
70.333,0.07970
70.500,0.07790
70.667,0.07960
70.833,0.08360
71.000,0.08310
71.167,0.08000
71.333,0.08050
71.500,0.07990
71.667,0.08440
71.833,0.07660
72.000,0.08340
72.167,0.08480
72.333,0.08140
72.500,0.07780
72.667,0.08500
72.833,0.08550
73.000,0.08360
73.167,0.08470
73.333,0.08770
73.500,0.08440
73.667,0.08620
73.833,0.08830
74.000,0.08620
74.167,0.09340
74.333,0.08610
74.500,0.09220
74.667,0.09250
74.833,0.09270
75.000,0.06990
75.167,0.09460
75.333,0.09030
75.500,0.09460
75.667,0.09270
75.833,0.08960
76.000,0.09210
76.167,0.09390
76.333,0.09300
76.500,0.09770
76.667,0.09330
76.833,0.09030
77.000,0.09390
77.167,0.09550
77.333,0.09610
77.500,0.09510
77.667,0.08960
77.833,0.09240
78.000,0.09390
78.167,0.09240
78.333,0.09460
78.500,0.09460
78.667,0.09510
78.833,0.09590
79.000,0.09560
79.167,0.09680
79.333,0.09850
79.500,0.09550
79.667,0.09790
79.833,0.09940
80.000,0.10060
80.167,0.10110
80.333,0.10240
80.500,0.09710
80.667,0.09700
77.500,0.09900
81.000,0.10240
81.167,0.10510
81.333,0.10450
81.500,0.10270
81.667,0.10790
81.833,0.10480
82.000,0.11090
82.167,0.10810
82.333,0.11180
82.500,0.11280
82.667,0.11270
82.833,0.11210
82.667,0.11270
83.167,0.11180
83.333,0.11240
83.500,0.11520
83.667,0.11090
83.833,0.11560
84.000,0.11750
84.167,0.11840
84.333,0.10770
84.500,0.10870
84.667,0.10800
84.833,0.11210
85.000,0.11210
85.167,0.11290
85.333,0.11130
85.500,0.11410
85.667,0.11690
85.833,0.11440
86.000,0.11680
86.167,0.11540
86.000,0.11740
86.500,0.11530
86.667,0.11710
86.833,0.11680
87.000,0.12070
87.167,0.11950
87.333,0.11930
87.500,0.11870
87.667,0.12110
87.833,0.11840
87.667,0.11400
88.167,0.12000
88.333,0.11850
88.500,0.11800
88.667,0.12350
88.833,0.12210
89.000,0.12050
89.167,0.11710
89.333,0.11720
89.500,0.12290
89.333,0.11990
89.833,0.12140
90.000,0.11550
90.167,0.09240
90.333,0.11880
90.500,0.11910
90.667,0.12360
90.833,0.12240
91.000,0.12300
91.167,0.12330
91.000,0.12240
91.500,0.12420
91.667,0.12180
91.833,0.12170
92.000,0.12120
92.167,0.12320
92.333,0.12300
92.500,0.12460
92.667,0.12000
92.833,0.12240
92.667,0.12510
93.167,0.12330
93.333,0.12780
93.500,0.12690
93.667,0.12580
93.833,0.12460
94.000,0.12720
94.167,0.12450
94.333,0.12420
94.500,0.12230
94.667,0.12400
94.833,0.12770
95.000,0.12720
95.167,0.12600
95.333,0.12870
95.500,0.12710
95.667,0.12750
95.833,0.12870
96.000,0.12600
96.167,0.12600
96.333,0.12900
96.500,0.12780
96.667,0.12720
96.833,0.12690
97.000,0.12870
97.167,0.13230
94.000,0.13180
97.500,0.13140
97.667,0.13300
97.833,0.13380
98.000,0.13170
98.167,0.13380
98.333,0.13280
98.500,0.13290
98.667,0.13470
98.833,0.13710
99.000,0.13380
99.167,0.13530
99.333,0.13830
99.500,0.13780
99.667,0.13980
99.833,0.13650
100.000,0.13410
100.167,0.13440
100.333,0.13620
100.500,0.13950
100.667,0.13570
100.833,0.13680
101.000,0.13260
101.167,0.13440
101.333,0.13620
101.500,0.13860
101.667,0.13770
101.833,0.13890
102.000,0.13920
102.167,0.13320
102.333,0.13440
102.500,0.14250
102.667,0.13560
102.833,0.14110
103.000,0.14300
103.167,0.13950
103.333,0.13920
103.500,0.14040
103.667,0.13750
103.833,0.13950
104.000,0.13770
104.167,0.13950
104.333,0.14040
104.500,0.13860
104.667,0.14100
104.833,0.14520
105.000,0.14310
105.167,0.14670
105.333,0.14100
105.500,0.14310
105.667,0.13920
105.833,0.14550
106.000,0.14250
106.167,0.14520
106.333,0.14540
106.500,0.14540
106.667,0.14880
106.833,0.14550
107.000,0.14190
107.167,0.14790
107.333,0.14520
107.500,0.14880
107.667,0.14310
107.833,0.14850
108.000,0.14910
108.167,0.15050
108.333,0.14430
108.500,0.15020
108.667,0.14810
108.833,0.14920
109.000,0.15340
109.167,0.14910
109.333,0.14670
109.500,0.15030
109.667,0.14940
109.833,0.14790
110.000,0.14910
110.167,0.15160
110.333,0.14970
110.500,0.14700
110.667,0.15060
110.833,0.14890
111.000,0.15090
111.167,0.14350
111.000,0.14490
111.500,0.14340
111.667,0.14740
111.833,0.14310
112.000,0.14280
112.167,0.14640
112.333,0.14670
112.500,0.14380
112.667,0.14820
112.833,0.14820
113.000,0.14340
113.167,0.14850
113.333,0.14610
113.500,0.14790
113.667,0.14900
113.833,0.14780
114.000,0.14940
114.167,0.14910
114.333,0.14920
114.500,0.15030
114.667,0.14730
114.833,0.14940
115.000,0.14880
115.167,0.15060
115.333,0.15220
115.500,0.15100
115.667,0.15190
115.833,0.15290
116.000,0.15370
116.167,0.14940
116.333,0.15220
116.500,0.15550
116.667,0.14940
116.833,0.15020
117.000,0.14940
117.167,0.15300
117.333,0.15670
117.500,0.15270
117.667,0.15200
117.833,0.15060
118.000,0.15490
118.167,0.15550
118.333,0.15240
118.500,0.15610
118.667,0.15310
118.833,0.15110
119.000,0.14970
119.167,0.15460
119.333,0.15370
119.500,0.15640
119.667,0.15560
119.833,0.15400
120.000,0.15770
120.167,0.15540
120.333,0.15850
120.500,0.15800
120.667,0.15980
120.833,0.15590
121.000,0.15760
121.167,0.15940
121.333,0.15910
121.500,0.15860
121.667,0.16000
121.833,0.15460
122.000,0.15670
122.167,0.15850
122.333,0.15770
122.500,0.16090
122.667,0.15990
122.833,0.16060
123.000,0.15910
123.167,0.16510
123.333,0.16420
123.500,0.16250
123.667,0.16070
123.833,0.16340
124.000,0.16140
124.167,0.16430
124.333,0.16370
124.500,0.16060
124.667,0.16400
124.833,0.16250
125.000,0.16310
125.167,0.16640
125.333,0.16610
125.500,0.16720
125.667,0.16390
125.833,0.16800
126.000,0.16800
126.167,0.16740
126.333,0.16950
126.500,0.16660
126.667,0.16850
126.833,0.16740
127.000,0.16890
127.167,0.16590
127.333,0.16530
127.500,0.16740
127.667,0.16840
127.833,0.16620
128.000,0.16990
128.167,0.16730
128.333,0.16830
128.500,0.17110
128.667,0.16990
128.833,0.17160
129.000,0.16680
129.167,0.17260
129.333,0.17370
129.500,0.17540
129.667,0.17280
129.833,0.17260
130.000,0.17030
130.167,0.17620
130.333,0.17000
130.500,0.17000
130.667,0.17580
130.833,0.17360
131.000,0.17600
131.167,0.17150
131.333,0.17330
131.500,0.16940
131.667,0.17730
131.833,0.17510
132.000,0.17240
132.167,0.17660
132.333,0.17620
132.500,0.17630
132.667,0.17750
132.833,0.17560
133.000,0.17410
133.167,0.17480
133.333,0.17460
133.500,0.17710
133.667,0.18440
133.833,0.17440
134.000,0.17800
134.167,0.17840
134.333,0.18080
134.500,0.17620
134.667,0.17900
134.833,0.17990
135.000,0.17870
135.167,0.18090
135.333,0.18000
135.500,0.17520
135.667,0.17730
135.833,0.18190
0.167,0.00530
0.333,0.00670
0.500,0.00890
0.667,0.01000
1.167,0.02240
1.333,0.01180
1.500,0.01520
1.667,0.01180
1.833,0.00280
2.000,0.00440
2.167,0.01000
2.500,0.00470
2.667,0.00950
3.000,0.01060
3.167,0.01400
3.333,0.01070
3.500,0.00050
3.667,0.02850
3.833,0.00830
4.000,0.02380
4.167,0.01450
4.333,0.02520
4.500,0.02350
4.667,0.01170
4.833,0.01620
5.000,0.01790
5.167,0.01370
5.333,0.02350
5.500,0.01570
5.667,0.02830
5.833,0.02130
6.000,0.01570
6.167,0.02270
6.333,0.01900
6.500,0.01000
6.667,0.01540
6.833,0.01400
7.000,0.02100
7.167,0.02020
7.333,0.01170
7.500,0.00980
7.667,0.02800
7.833,0.01600
8.000,0.02410
8.167,0.00720
8.333,0.02910
8.500,0.01740
8.667,0.01570
8.833,0.03030
9.000,0.02950
9.167,0.02240
9.333,0.02940
9.500,0.03200
9.667,0.02960
9.833,0.01960
10.000,0.02080
10.167,0.03420
10.333,0.02720
10.500,0.02910
10.667,0.02750
10.833,0.01960
11.000,0.01900
11.167,0.01400
11.333,0.02520
11.500,0.03200
11.667,0.02810
11.833,0.02410
12.000,0.02410
12.167,0.03250
12.333,0.02550
12.500,0.04070
12.667,0.03900
12.833,0.02910
13.000,0.03060
13.167,0.02550
13.333,0.02800
10.167,0.02980
13.667,0.03250
13.833,0.01960
14.000,0.03310
14.167,0.03030
14.333,0.02270
14.500,0.02750
14.667,0.02350
14.833,0.03480
15.000,0.02690
15.167,0.03280
15.333,0.02630
15.500,0.03140
15.667,0.03430
15.833,0.03310
16.000,0.04600
16.167,0.03430
16.333,0.02490
16.500,0.02630
16.667,0.02910
16.833,0.03080
17.000,0.04490
17.167,0.03360
17.333,0.04210
17.500,0.03030
17.667,0.03810
17.833,0.02800
18.000,0.04040
18.167,0.01900
18.333,0.04320
18.500,0.04090
18.667,0.02040
18.833,0.03530
19.000,0.03170
19.167,0.02860
19.333,0.03450
19.500,0.03840
19.667,0.03500
19.833,0.02720
20.000,0.04370
20.167,0.02240
20.333,0.01850
20.500,0.02970
20.667,0.03620
20.833,0.04010
21.000,0.04540
21.167,0.05270
21.333,0.06270
21.500,0.03580
21.667,0.05000
21.833,0.05560
22.000,0.05110
22.167,0.04400
22.333,0.05180
22.500,0.05040
22.667,0.03880
22.833,0.03970
23.000,0.03770
23.167,0.04330
23.333,0.03060
23.500,0.04450
23.667,0.05350
23.833,0.04470
24.000,0.05320
24.167,0.04860
24.333,0.04070
24.500,0.03820
24.667,0.04100
24.833,0.03120
25.000,0.04250
25.167,0.03830
25.333,0.04190
25.500,0.03430
25.667,0.04110
25.833,0.03990
26.000,0.04840
26.167,0.06080
26.333,0.03910
26.500,0.04160
26.667,0.03260
26.833,0.05430
27.000,0.03830
27.167,0.03740
27.333,0.04640
27.500,0.04700
27.667,0.04900
27.833,0.03770
28.000,0.04160
28.167,0.04470
28.333,0.03990
28.500,0.03320
28.667,0.03800
28.833,0.03910
29.000,0.03490
29.167,0.03900
29.333,0.03820
29.500,0.04720
29.667,0.04110
29.833,0.03940
26.667,0.04360
30.167,0.03600
27.000,0.03660
27.167,0.04220
30.667,0.04160
27.500,0.04550
31.000,0.03770
31.167,0.04470
27.667,0.05350
31.500,0.04560
31.667,0.05800
31.833,0.04760
32.000,0.05350
32.167,0.05320
32.333,0.05250
32.500,0.04190
32.667,0.04450
32.833,0.04940
32.667,0.05070
33.167,0.03990
33.333,0.05070
33.500,0.04730
33.667,0.04360
33.833,0.04970
34.000,0.03880
34.167,0.03770
34.333,0.05700
34.500,0.04440
34.333,0.05800
34.833,0.04450
35.000,0.04900
35.167,0.05400
35.333,0.04610
35.500,0.04450
35.667,0.04560
35.833,0.04900
36.000,0.04330
36.167,0.05850
36.000,0.04610
36.500,0.05350
36.667,0.05070
36.833,0.05110
37.000,0.04940
37.167,0.05680
37.333,0.05250
37.500,0.05790
37.667,0.05000
37.833,0.03590
37.667,0.05070
38.167,0.05460
38.333,0.04050
38.500,0.05570
38.667,0.06080
38.833,0.06080
39.000,0.06190
39.167,0.06460
39.333,0.04940
39.500,0.05630
39.333,0.06360
39.833,0.04840
40.000,0.06020
40.167,0.06520
40.333,0.06080
40.500,0.04110
40.667,0.04490
40.833,0.05290
41.000,0.06420
41.167,0.05850
41.333,0.05290
41.500,0.05910
41.667,0.04840
41.833,0.05490
42.000,0.05800
42.167,0.05830
42.333,0.05680
42.500,0.05260
42.667,0.06110
42.833,0.06220
42.667,0.05070
43.167,0.05350
43.333,0.05230
43.500,0.05680
43.667,0.05970
43.833,0.05070
44.000,0.06140
44.167,0.00130
44.333,0.05520
44.500,0.06120
44.333,0.05950
44.833,0.06220
45.000,0.04820
45.167,0.06630
45.333,0.05410
45.500,0.05720
45.667,0.05960
45.833,0.06260
46.000,0.07110
46.167,0.06480
46.333,0.05310
46.500,0.04460
43.333,0.06780
46.833,0.06910
47.000,0.05790
47.167,0.06750
47.333,0.06210
47.500,0.07100
47.667,0.06380
47.833,0.05530
48.000,0.06810
48.167,0.07510
48.333,0.06720
48.500,0.06830
48.667,0.06890
48.833,0.07460
49.000,0.06660
49.167,0.05880
49.333,0.06620
49.500,0.05870
49.667,0.06490
49.833,0.06770
50.000,0.06600
50.167,0.06260
50.333,0.05640
50.500,0.05590
50.667,0.07420
50.833,0.06460
51.000,0.06310
51.167,0.06480
51.333,0.06680
51.500,0.07390
51.667,0.07110
51.833,0.07140
52.000,0.08130
52.167,0.08470
52.333,0.07930
52.500,0.06650
52.667,0.06000
52.833,0.08020
53.000,0.06820
53.167,0.08080
53.333,0.07190
53.500,0.07340
53.667,0.07510
53.833,0.06650
54.000,0.07930
54.167,0.06850
54.333,0.07420
54.500,0.08130
54.667,0.09560
54.833,0.07310
55.000,0.07730
55.167,0.08780
55.333,0.08250
55.500,0.07070
55.667,0.08130
55.833,0.07420
56.000,0.08700
56.167,0.06960
56.333,0.08060
56.500,0.08760
56.667,0.07050
56.833,0.07390
57.000,0.07420
57.167,0.08670
57.333,0.06420
57.500,0.08930
57.667,0.09270
57.833,0.08360
58.000,0.08630
58.167,0.09530
58.333,0.06760
58.500,0.08870
58.667,0.09800
58.833,0.09070
59.000,0.08940
59.167,0.08730
59.667,0.08470
59.500,0.09460
59.667,0.08500
59.833,0.08130
60.000,0.08250
60.167,0.08700
60.333,0.09040
60.500,0.09410
60.667,0.10070
60.833,0.10090
61.000,0.09390
61.167,0.09410
61.333,0.10210
61.500,0.10360
61.667,0.10130
61.833,0.09900
62.000,0.09670
62.167,0.09780
62.333,0.10070
62.500,0.11240
62.667,0.09690
62.833,0.10980
63.000,0.09440
63.167,0.10980
63.333,0.10240
63.500,0.09580
63.667,0.11260
63.833,0.10100
64.000,0.12180
64.167,0.11520
64.333,0.11380
64.500,0.10520
64.667,0.10810
64.833,0.11550
65.000,0.11090
65.167,0.11260
65.333,0.11940
65.500,0.12450
65.667,0.10490
65.833,0.12650
66.000,0.11580
66.167,0.12550
66.333,0.12080
66.500,0.12420
66.667,0.11230
66.833,0.12520
67.000,0.13170
67.167,0.11570
67.333,0.11310
67.500,0.11680
67.667,0.12880
67.833,0.13590
68.000,0.12650
68.167,0.13340
68.333,0.13260
68.500,0.13110
68.667,0.14390
68.833,0.12140
69.000,0.12030
69.167,0.13110
69.333,0.13110
69.500,0.13680
69.667,0.12310
69.833,0.14910
70.000,0.12620
70.167,0.14020
70.333,0.15050
70.500,0.14710
70.667,0.14050
70.833,0.15160
71.000,0.13340
71.167,0.14930
71.333,0.15100
71.500,0.14140
71.667,0.15730
71.833,0.14540
72.000,0.15620
72.167,0.14590
72.333,0.14650
72.500,0.14590
72.667,0.16020
72.833,0.15960
73.000,0.16670
73.167,0.15330
73.333,0.15530
73.500,0.16160
73.667,0.15990
73.833,0.15850
74.000,0.14900
74.167,0.17470
74.333,0.16530
74.500,0.17360
74.667,0.16790
74.833,0.16960
75.000,0.17500
75.167,0.18220
75.333,0.16330
75.500,0.16820
75.667,0.17100
75.833,0.17530
76.000,0.18130
76.167,0.17270
76.333,0.18670
76.500,0.18450
76.667,0.19500
76.833,0.19380
77.000,0.19050
77.167,0.18730
77.333,0.18650
77.500,0.20100
77.667,0.19410
77.833,0.18470
78.000,0.18930
78.167,0.18820
78.333,0.19070
78.500,0.19840
78.667,0.19530
78.833,0.19730
79.000,0.18620
79.167,0.19670
79.333,0.20270
79.500,0.20950
79.667,0.21010
79.833,0.20700
80.000,0.21070
80.167,0.21120
80.333,0.18930
80.500,0.20300
77.333,0.20870
80.833,0.21760
81.000,0.21930
81.167,0.22670
81.333,0.22050
81.500,0.22330
81.667,0.23130
81.833,0.22330
82.000,0.22960
82.167,0.22730
82.333,0.23100
82.500,0.23100
82.667,0.23390
82.833,0.23530
83.000,0.22730
83.167,0.23760
83.333,0.24360
83.500,0.23790
83.667,0.24330
83.833,0.24690
84.000,0.23530
84.167,0.23500
84.333,0.24870
84.500,0.23700
84.667,0.24620
84.833,0.25090
85.000,0.24930
85.167,0.25030
85.333,0.25330
85.500,0.25190
85.667,0.25400
85.833,0.25890
86.000,0.25930
86.167,0.25670
86.000,0.25850
86.500,0.26300
86.667,0.25740
86.833,0.26260
87.000,0.26930
87.167,0.26560
87.333,0.26870
87.500,0.27500
87.667,0.27100
87.833,0.27760
88.000,0.27910
88.167,0.26710
88.333,0.27110
88.500,0.27870
88.667,0.27930
88.833,0.28960
89.000,0.27830
89.167,0.27460
89.333,0.28300
89.500,0.27790
89.333,0.28530
89.833,0.28730
90.000,0.28870
90.167,0.28470
90.333,0.29590
90.500,0.29250
90.667,0.28850
90.833,0.28070
91.000,0.28870
91.167,0.28300
91.000,0.28120
91.500,0.29040
91.667,0.29550
0.167,0.00200
0.333,0.01360
0.500,0.02240
0.667,0.03190
0.833,0.03030
1.000,0.03870
1.167,0.03590
1.333,0.04110
1.500,0.04700
1.667,0.05950
1.833,0.06150
2.000,0.05460
2.167,0.06380
2.333,0.05570
2.500,0.04570
2.667,0.05900
2.833,0.06400
3.000,0.06820
3.167,0.06630
3.333,0.07770
3.500,0.07740
3.667,0.06050
3.833,0.06120
4.000,0.06310
4.167,0.06620
4.333,0.06560
4.500,0.08380
4.667,0.08050
4.833,0.08190
5.000,0.08040
5.167,0.09070
5.333,0.09050
5.500,0.08770
5.667,0.09440
5.833,0.09350
6.000,0.09900
6.167,0.09030
6.000,0.09610
6.500,0.09260
6.667,0.09530
6.833,0.09090
7.000,0.09800
7.167,0.10010
7.333,0.10710
7.500,0.10040
7.667,0.10410
7.833,0.10410
8.000,0.09920
8.167,0.09960
8.333,0.10270
8.500,0.10980
8.667,0.10940
8.833,0.10770
9.000,0.11010
9.167,0.10890
9.333,0.10730
9.500,0.10680
9.667,0.10740
9.833,0.11320
10.000,0.11350
10.167,0.11950
10.333,0.11650
10.500,0.11680
10.667,0.11530
10.833,0.11770
11.000,0.11320
11.167,0.10690
11.333,0.11590
11.500,0.11470
11.667,0.11410
11.833,0.11590
12.000,0.11660
12.167,0.11810
12.333,0.11650
12.500,0.12070
12.667,0.12040
12.833,0.11870
13.000,0.12130
13.167,0.12340
13.333,0.12660
13.500,0.12870
13.667,0.13090
13.833,0.12770
14.000,0.12830
14.167,0.12520
14.333,0.12570
14.500,0.12790
14.667,0.12640
14.833,0.13040
15.000,0.13510
15.167,0.12800
15.333,0.12680
15.500,0.12670
15.667,0.12820
15.833,0.13380
16.000,0.12800
16.167,0.13380
16.333,0.13100
16.500,0.13560
16.667,0.12710
16.833,0.13280
17.000,0.13280
17.167,0.13270
17.333,0.13520
17.500,0.13400
17.667,0.12860
17.833,0.90694
18.000,0.13480
18.167,0.13720
18.333,0.13580
18.500,0.13490
18.667,0.13660
18.833,0.13640
19.000,0.13790
19.167,0.13790
19.333,0.13770
19.500,0.14210
19.667,0.14690
19.833,0.14060
20.000,0.14240
20.167,0.14540
20.333,0.14240
20.500,0.15890
0.167,0.00980
0.333,0.01580
0.500,0.01490
0.667,0.02270
0.833,0.02360
1.000,0.03660
1.167,0.07120
1.333,0.07600
1.500,0.07980
1.667,0.07880
1.833,0.06790
2.000,0.07240
2.167,0.07730
2.333,0.06660
2.500,0.07260
2.667,0.08100
2.833,0.08190
3.000,0.08600
3.167,0.07800
3.333,0.09130
3.500,0.08120
3.667,0.09480
3.833,0.08840
4.000,0.09810
4.167,0.09550
4.333,0.09870
4.500,0.11250
4.667,0.10640
4.833,0.09730
5.000,0.10830
5.167,0.11230
5.333,0.12900
5.500,0.12850
5.667,0.12830
5.833,0.15710
6.000,0.15970
6.167,0.16090
6.333,0.15320
6.500,0.16980
6.667,0.15620
6.833,0.15900
7.000,0.15170
7.167,0.16090
7.333,0.16790
7.500,0.16110
7.667,0.16180
7.833,0.15970
8.000,0.15460
8.167,0.15550
8.333,0.16110
8.500,0.16570
8.667,0.16490
8.833,0.15960
9.000,0.16540
9.167,0.15760
9.333,0.17020
9.500,0.17150
9.667,0.16300
9.833,0.18280
10.000,0.17970
13.500,0.16940
10.333,0.17490
10.500,0.16590
10.667,0.18110
10.833,0.17180
11.000,0.17710
11.167,0.16470
11.333,0.17410
11.500,0.17360
11.667,0.18020
11.833,0.17080
12.000,0.17150
12.167,0.17220
12.333,0.18130
12.500,0.17940
12.667,0.17240
12.833,0.17210
13.000,0.18940
11.667,0.18310
13.333,0.17990
13.500,0.18320
13.667,0.16240
13.833,0.17720
14.000,0.18710
14.167,0.17810
14.333,0.17580
14.500,0.18560
14.333,0.18260
14.833,0.18760
15.000,0.18320
15.167,0.19000
15.333,0.18150
15.500,0.18970
15.667,0.18110
15.833,0.18860
16.000,0.18880
16.167,0.19380
16.333,0.17910
16.500,0.19330
16.667,0.18790
16.833,0.19010
17.000,0.19960
17.167,0.17620
1,0.00060
1.5,0.00706
2,0.00662
2.5,0.01153
3,0.00367
3.5,0.00252
4,0.01506
4.5,0.00929
5,0.00216
5.5,0.00669
6,0.01237
6.5,0.01888
7,0.02203
7.5,0.03083
8,0.02378
8.5,0.02731
9,0.02426
9.5,0.03670
10,0.03830
10.5,0.03664
11,0.03850
11.5,0.04545
12,0.05727
12.5,0.05071
13,0.08440
13.5,0.07550
14,0.06956
14.5,0.07829
15,0.07600
15.5,0.07981
16,0.07722
16.5,0.07930
17,0.07589
17.5,0.06938
18,0.06409
18.5,0.06833
19,0.08992
19.5,0.08415
20,0.07791
20.5,0.06838
21,0.07828
21.5,0.08571
22,0.08066
22.5,0.09109
23,0.08185
23.5,0.08163
24,0.08405
24.5,0.09455
25,0.08476
25.5,0.08320
26,0.07491
26.5,0.09332
27,0.09866
27.5,0.11142
28,0.10852
28.5,0.12281
29,0.10602
29.5,0.10085
30,0.12112
30.5,0.10262
31,0.11862
31.5,0.10597
32,0.11529
32.5,0.10581
33,0.09199
33.5,0.08845
34,0.11755
34.5,0.11445
35,0.11825
35.5,0.13676
36,0.10987
36.5,0.10541
37,0.10613
37.5,0.09639
38,0.12537
38.5,0.12594
39,0.12340
39.5,0.11385
40,0.13513
40.5,0.11558
41,0.10847
41.5,0.10108
42.5,0.14046
43,0.15669
43.5,0.10759
44,0.12823
44.5,0.14191
45,0.12663
45.5,0.11862
46,0.09944
46.5,0.11902
47,0.10071
47.5,0.08873
48,0.11593
48.5,0.12285
49,0.11847
49.5,0.12228
50,0.11657
0,0.00771
0.5,0.00966
1,0.01689
1.5,0.00315
2,0.00075
2.5,0.00548
3,0.00714
3.5,0.01171
4,0.01814
4.5,0.01549
5,0.01490
5.5,0.01908
6,0.01609
6.5,0.01806
7,0.01710
7.5,0.02161
8,0.02272
8.5,0.02670
9,0.03053
9.5,0.03924
10,0.04516
10.5,0.04139
11,0.04105
11.5,0.04000
12,0.04911
12.5,0.10728
13,0.05838
13.5,0.09101
14,0.09771
14.5,0.12248
15,0.10796
15.5,0.12358
16,0.13541
16.5,0.14437
17,0.13917
17.5,0.12704
18,0.13396
18.5,0.13810
19,0.15146
19.5,0.14315
20,0.13641
20.5,0.13781
21,0.13729
21.5,0.12690
22,0.13179
22.5,0.13879
23,0.14751
23.5,0.14686
24,0.15602
24.5,0.14740
25,0.16514
25.5,0.17644
26,0.17909
26.5,0.18016
27,0.19192
27.5,0.20604
28,0.21802
28.5,0.22067
29,0.25504
29.5,0.25005
30,0.25282
30.5,0.23970
31,0.25693
31.5,0.26496
32,0.26334
32.5,0.26126
33,0.27503
33.5,0.25937
34,0.27094
34.5,0.28663
35,0.30093
35.5,0.30922
36,0.33815
36.5,0.31377
37,0.28048
37.5,0.29780
38,0.27769
38.5,0.27567
39,0.26306
39.5,0.25708
40,0.26968
40.5,0.27059
41,0.27647
41.5,0.27488
42.5,0.28635
43,0.28491
43.5,0.29220
44,0.29247
44.5,0.29247
45,0.29628
45.5,0.30006
46,0.31889
46.5,0.31231
47,0.31419
0,0.00769
0.5,0.00450
1,0.00573
1.5,0.00485
2,0.03056
2.5,0.04410
3,0.04981
3.5,0.05615
4,0.06326
4.5,0.06505
5,0.06684
5.5,0.06801
6,0.07928
6.5,0.08885
7,0.09369
7.5,0.09587
8,0.09316
8.5,0.09636
9,0.08367
9.5,0.10792
10,0.10645
10.5,0.10398
11,0.10564
11.5,0.13279
12,0.14062
12.5,0.14491
13,0.14147
13.5,0.15426
14,0.15477
14.5,0.15240
15,0.15858
15.5,0.17514
16,0.18638
16.5,0.19174
17,0.19004
17.5,0.20390
18,0.20536
18.5,0.20241
19,0.19600
19.5,0.19854
20,0.19302
20.5,0.21278
21,0.21712
21.5,0.21073
22,0.20836
22.5,0.20620
23,0.22580
23.5,0.21384
24,0.21208
24.5,0.22337
25,0.24937
25.5,0.24846
26,0.26499
26.5,0.27322
27,0.26670
27.5,0.25837
28,0.28071
28.5,0.29674
29,0.30656
29.5,0.32813
30,0.35378
30.5,0.32904
31,0.34475
31.5,0.34475
32,0.40769
32.5,0.40209
33,0.44592
33.5,0.47026
34,0.49221
34.5,0.50805
35,0.52225
35.5,0.53303
36,0.55220
36.5,0.56304
37,0.56811
37.5,0.57996
38,0.58468
38.5,0.59032
39,0.60471
39.5,0.60847
40,0.61461
40.5,0.66079
41,0.64116
41.5,0.64958
42.5,0.65705
43,0.67521
43.5,0.68978
44,0.69096
44.5,0.70133
45,0.69641
45.5,0.71716
46,0.74297
46.5,0.76233
47,0.72872
47.5,0.75633
48,0.75095
1,0.01656
1.5,0.03532
2,0.02335
2.5,0.05812
3,0.06917
3.5,0.07529
4,0.07730
4.5,0.08489
5,0.09052
5.5,0.08408
6,0.09195
6.5,0.09227
7,0.09230
7.5,0.09917
8,0.09895
8.5,0.10473
9,0.11568
9.5,0.12780
10,0.13089
10.5,0.14679
11,0.15350
11.5,0.18774
12,0.23722
12.5,0.29030
13,0.32228
13.5,0.35357
14,0.38377
14.5,0.43599
15,0.47681
15.5,0.50667
16,0.58854
16.5,0.61497
17,0.62469
17.5,0.64745
18,0.67398
18.5,0.68533
19,0.69619
19.5,0.71391
20,0.72209
20.5,0.73738
21,0.76561
0.5,0.00351
3,0.00131
3.5,0.00106
4,0.00220
4.5,0.00209
5,0.00278
5.5,0.00672
6,0.00123
6.5,0.00541
7,0.00105
7.5,0.00355
8,0.00614
8.5,0.00141
9,0.00363
9.5,0.01977
10,0.01773
10.5,0.02572
11,0.01999
11.5,0.02037
12,0.02173
12.5,0.01898
13,0.01483
13.5,0.02991
14,0.02193
14.5,0.02111
15,0.02542
15.5,0.02047
16,0.01294
16.5,0.01189
17,0.02376
17.5,0.02154
18,0.01911
18.5,0.01559
19,0.01812
19.5,0.01716
20,0.01911
20.5,0.02021
21,0.02522
21.5,0.01865
22,0.02020
22.5,0.02500
23,0.02009
23.5,0.02171
24,0.03242
24.5,0.03716
25,0.03837
25.5,0.03286
26,0.03837
26.5,0.03516
27,0.03717
27.5,0.03338
28,0.03807
28.5,0.03950
29,0.04230
29.5,0.04436
30,0.03619
30.5,0.04017
31,0.03188
31.5,0.03453
32,0.03569
32.5,0.04449
33,0.03417
33.5,0.02261
34,0.02868
34.5,0.02732
35,0.03100
35.5,0.02047
36,0.02552
36.5,0.03173
37,0.02756
37.5,0.02714
38,0.03691
38.5,0.02570
39,0.02601
39.5,0.02716
40,0.02940
40.5,0.02440
41,0.02949
41.5,0.02225
42,0.02422
42.5,0.02361
43,0.02790
43.5,0.02316
44,0.02776
44.5,0.02655
45,0.03017
45.5,0.03450
46,0.04001
46.5,0.03160
47,0.04450
47.5,0.04802
48,0.04524
48.5,0.03089
49,0.03191
0.5,0.00641
1,0.00285
1.5,0.00398
2,0.00340
2.5,0.00068
3,0.00750
3.5,0.00952
4,0.00389
4.5,0.00670
5,0.00807
5.5,0.01726
6,0.03388
6.5,0.03268
7,0.03870
7.5,0.04303
8,0.04911
8.5,0.04369
9,0.04891
9.5,0.05696
10,0.04169
10.5,0.05231
11,0.05399
11.5,0.06106
12,0.06412
12.5,0.06384
13,0.07536
13.5,0.07207
14,0.08684
14.5,0.08057
15,0.07151
15.5,0.09312
16,0.10974
16.5,0.12784
17,0.15760
17.5,0.16180
18,0.16610
18.5,0.17641
19,0.15901
19.5,0.17114
20,0.17627
20.5,0.17867
21,0.18964
21.5,0.19244
22,0.19920
22.5,0.19907
23,0.20418
23.5,0.20547
24,0.19378
24.5,0.20308
25,0.19774
25.5,0.20394
26,0.19351
26.5,0.23770
27,0.23711
27.5,0.24208
28,0.24128
28.5,0.23747
29,0.24571
29.5,0.24644
30,0.25617
30.5,0.25160
31,0.25651
31.5,0.25523
32,0.25893
32.5,0.26339
33,0.26428
33.5,0.25904
34,0.24457
34.5,0.25662
35,0.26619
35.5,0.27969
36,0.28406
36.5,0.28959
37,0.30080
37.5,0.30909
38,0.31721
38.5,0.32146
39,0.35649
39.5,0.32060
40,0.32876
40.5,0.35208
41,0.37768
41.5,0.35781
42,0.37368
42.5,0.36544
43,0.32148
43.5,0.30978
44,0.33805
44.5,0.39575
45,0.41516
45.5,0.42370
0.5,0.00120
1.5,0.00220
2,0.05280
2.5,0.04960
3,0.05930
3.5,0.05250
4,0.06410
4.5,0.06590
5,0.08070
5.5,0.08650
6,0.09300
6.5,0.09320
7,0.10240
7.5,0.09560
8,0.11330
8.5,0.09510
9,0.11430
9.5,0.10930
10,0.11630
10.5,0.12190
11,0.12960
11.5,0.12480
12,0.14180
12.5,0.14900
13,0.15910
13.5,0.16130
14,0.16680
14.5,0.17070
15,0.17230
15.5,0.19610
16,0.19660
16.5,0.21950
17,0.21900
17.5,0.21410
18,0.20370
18.5,0.20530
19,0.20280
19.5,0.20800
20,0.22630
20.5,0.22500
21,0.22250
21.5,0.25110
22,0.24620
22.5,0.26450
23,0.26080
23.5,0.29080
24,0.27610
24.5,0.28130
25,0.30380
25.5,0.27890
26,0.29210
26.5,0.28830
27,0.29000
27.5,0.29600
28,0.32840
28.5,0.32130
29,0.31750
29.5,0.32480
30,0.35500
30.5,0.34240
31,0.38380
31.5,0.38060
32,0.36980
32.5,0.33710
33,0.34070
33.5,0.37080
34,0.37260
34.5,0.35520
35,0.35590
35.5,0.39440
36,0.40140
36.5,0.41990
37,0.42070
37.5,0.42940
38,0.42130
38.5,0.42600
39,0.47260
39.5,0.47630
40,0.46180
40.5,0.48170
41,0.47940
41.5,0.47790
42,0.46000
42.5,0.44930
43,0.48660
43.5,0.51230
44,0.51690
44.5,0.53510
45,0.53360
45.5,0.55070
46,0.55890
46.5,0.55890
2,0.00790
2.5,0.04050
3,0.06540
3.5,0.07650
4,0.08230
4.5,0.10380
5,0.10350
5.5,0.11320
6,0.12290
6.5,0.13400
7,0.13500
7.5,0.12020
8,0.20800
8.5,0.14220
9,0.14580
9.5,0.15600
10,0.16500
10.5,0.16800
11,0.16900
11.5,0.18400
12,0.18800
12.5,0.19500
13,0.21500
13.5,0.21520
14,0.22600
14.5,0.22300
15,0.23900
15.5,0.24250
16,0.25700
16.5,0.25100
17,0.25860
17.5,0.26900
18,0.27510
18.5,0.26980
19,0.27810
19.5,0.26950
20,0.27940
20.5,0.26540
21,0.26295
21.5,0.28840
22,0.30400
22.5,0.33300
23,0.34200
23.5,0.38280
24,0.40700
24.5,0.41700
25,0.41200
25.5,0.42400
26,0.45300
26.5,0.46300
27,0.47900
27.5,0.48700
28,0.49360
28.5,0.50200
29,0.51800
29.5,0.53440
30,0.54200
30.5,0.56200
31,0.55900
31.5,0.57600
32,0.59700
32.5,0.61700
33,0.63100
33.5,0.65200
34,0.66600
34.5,0.67200
1.000,0.00087
1.500,0.00790
2.000,0.04050
2.500,0.06540
3.000,0.07650
3.500,0.08230
4.000,0.10380
4.500,0.10350
5.000,0.11320
5.500,0.11290
6.000,0.12400
6.500,0.12500
7.000,0.12020
7.500,0.12080
8.000,0.12220
8.500,0.12580
9.000,0.13600
9.500,0.13900
10.000,0.14800
10.500,0.14900
11.000,0.15900
11.500,0.15800
12.000,0.16500
12.500,0.17500
13.000,0.17520
13.500,0.18260
14.000,0.18230
14.500,0.18390
15.000,0.20250
15.500,0.21700
16.000,0.21100
16.500,0.22860
17.000,0.22900
17.500,0.23510
18.000,0.24980
18.500,0.27810
19.000,0.26950
19.500,0.27940
20.000,0.26540
20.500,0.26950
21.000,0.27840
21.500,0.29340
22.000,0.29330
22.500,0.31420
23.000,0.31850
23.500,0.34070
24.000,0.34170
24.500,0.34120
25.000,0.34240
25.500,0.35300
26.000,0.36300
26.500,0.37900
27.000,0.38700
27.500,0.39360
28.000,0.41020
28.500,0.41800
29.000,0.43440
29.500,0.44200
30.000,0.46200
30.500,0.45900
31.000,0.47600
31.500,0.49700
32.000,0.51700
32.500,0.53100
33.000,0.55200
33.500,0.56600
34.000,0.57200
34.500,0.57300
0.000,0.00040
0.500,0.00050
1.500,0.00110
2.000,0.01080
2.500,0.00670
3.000,0.00200
3.500,0.00640
4.000,0.00690
4.500,0.00830
5.000,0.00940
5.500,0.01300
6.000,0.03500
6.500,0.04400
7.000,0.03900
7.500,0.04060
8.000,0.04090
8.500,0.04620
9.000,0.04760
9.500,0.05480
10.000,0.05090
10.500,0.06700
11.000,0.06240
11.500,0.07530
12.000,0.07190
12.500,0.08940
13.000,0.08550
13.500,0.09760
14.000,0.09700
14.500,0.10490
15.000,0.10348
15.500,0.10381
16.000,0.11770
16.500,0.12130
17.000,0.12630
17.500,0.11960
18.000,0.11730
18.500,0.11870
19.000,0.12620
19.500,0.13150
20.000,0.13180
20.500,0.13330
21.000,0.13820
21.500,0.13720
22.000,0.14920
22.500,0.14553
23.000,0.14607
23.500,0.15602
24.000,0.15190
24.500,0.14480
25.000,0.14660
25.500,0.15430
26.000,0.15410
26.500,0.15990
27.000,0.16180
27.500,0.16140
28.000,0.16280
28.500,0.16380
29.000,0.16390
29.500,0.17310
30.000,0.18770
30.500,0.18790
31.000,0.18690
31.500,0.19880
32.000,0.19450
32.500,0.18050
33.000,0.18450
33.500,0.18340
34.000,0.18190
34.500,0.20410
35.000,0.19870
35.500,0.21970
36.000,0.21941
36.500,0.19940
37.000,0.18480
37.500,0.20630
38.000,0.21710
38.500,0.22970
39.000,0.22830
39.500,0.23720
40.000,0.24610
40.500,0.24800
41.000,0.24510
41.500,0.23990
42.000,0.24330
42.500,0.24160
43.000,0.21930
43.500,0.23770
44.000,0.23610
44.500,0.25530
45.000,0.27600
45.500,0.28700
46.000,0.29400
46.500,0.31200
47.000,0.32780
47.500,0.30660
48.000,0.31850
0.000,0.00708
0.500,0.00770
1.000,0.00536
4.000,0.00790
4.500,0.00262
5.000,0.01013
5.500,0.00298
6.000,0.00584
6.500,0.00310
7.000,0.00754
7.500,0.00212
8.000,0.00668
8.500,0.00857
9.000,0.01038
9.500,0.00817
10.000,0.01235
10.500,0.01310
11.000,0.00652
11.500,0.00685
12.000,0.01241
12.500,0.01466
13.000,0.00886
13.500,0.01272
14.000,0.00155
14.500,0.02176
15.000,0.01886
15.500,0.02555
16.000,0.02181
16.500,0.01655
17.000,0.01156
17.500,0.01525
18.000,0.01689
18.500,0.01087
19.000,0.02173
19.500,0.02160
20.000,0.03345
20.500,0.03217
21.000,0.03471
21.500,0.03086
22.000,0.03373
22.500,0.03260
23.000,0.03751
23.500,0.03411
24.000,0.03866
24.500,0.03454
25.000,0.03300
25.500,0.02987
26.000,0.02953
26.500,0.02956
27.000,0.02672
27.500,0.03658
28.000,0.03342
28.500,0.03308
29.000,0.03264
29.500,0.03295
30.000,0.03256
30.500,0.02220
31.000,0.02971
31.500,0.03002
32.000,0.03076
32.500,0.03238
33.000,0.03281
33.500,0.02866
34.000,0.03051
34.500,0.03538
35.000,0.03652
35.500,0.03705
36.000,0.03819
36.500,0.04269
37.000,0.04235
37.500,0.04680
38.000,0.03522
38.500,0.03039
39.000,0.02829
39.500,0.03014
40.000,0.04095
40.500,0.03988
41.000,0.03459
41.500,0.03399
42.000,0.03027
42.500,0.03304
43.000,0.02659
43.500,0.02373
44.000,0.03898
44.500,0.02747
45.000,0.02167
45.500,0.03773
46.000,0.03335
46.500,0.03765
47.000,0.03303
47.500,0.03270
48.000,0.03311
0.500,0.00415
0.670,0.02055
0.830,0.02972
1.000,0.03576
1.170,0.05238
1.330,0.06079
1.500,0.06817
1.670,0.07350
1.830,0.07809
2.000,0.08104
2.170,0.08431
2.330,0.09726
2.500,0.09827
2.670,0.09849
2.830,0.10836
3.000,0.10861
3.170,0.10763
3.330,0.11744
3.500,0.11649
3.670,0.11649
3.830,0.11553
4.000,0.11040
4.170,0.11423
4.330,0.11439
4.500,0.11461
4.670,0.11297
4.830,0.11282
5.000,0.11186
5.170,0.12094
5.330,0.11958
5.500,0.12203
5.670,0.12729
5.830,0.12799
6.000,0.12915
6.170,0.12836
6.330,0.12921
6.500,0.12946
6.670,0.12977
6.830,0.12952
7.000,0.13027
7.170,0.13126
7.330,0.13115
7.500,0.13268
7.670,0.13459
7.830,0.13522
8.000,0.13682
8.170,0.13856
8.330,0.14061
8.500,0.14234
8.670,0.14389
8.830,0.14631
9.000,0.14917
9.170,0.15227
9.330,0.15618
9.500,0.16042
9.670,0.16396
9.830,0.16918
10.000,0.17615
10.200,0.18347
10.300,0.19002
10.500,0.19607
10.700,0.20282
10.800,0.21007
11.000,0.21817
11.200,0.22873
11.300,0.23786
11.500,0.24666
11.700,0.25670
11.800,0.26501
12.000,0.27423
12.200,0.28703
12.300,0.29697
12.500,0.30660
12.700,0.31560
12.800,0.32927
13.000,0.34001
13.200,0.34846
13.300,0.35719
13.500,0.36637
13.700,0.37631
13.800,0.38573
14.000,0.39412
14.200,0.40188
14.300,0.41703
14.500,0.43053
14.700,0.43403
14.800,0.43707
15.000,0.44168
15.200,0.44833
15.300,0.45447
15.500,0.45795
15.700,0.46353
15.800,0.47346
16.000,0.48307
16.200,0.49003
16.300,0.48709
16.500,0.50113
16.700,0.50690
16.800,0.50791
17.000,0.51716
17.200,0.52313
17.300,0.52430
17.500,0.52830
17.700,0.53422
17.800,0.53907
18.000,0.54460
18.200,0.54814
18.300,0.55266
18.500,0.55401
18.700,0.55812
18.800,0.56136
19.000,0.56543
19.200,0.56907
19.300,0.57504
19.500,0.57840
19.700,0.58315
19.800,0.58779
20.000,0.59102
0.500,0.01660
0.670,0.01610
0.830,0.01540
1.000,0.02310
1.170,0.02330
1.330,0.02833
1.500,0.02890
1.670,0.03680
1.830,0.03610
2.000,0.03650
2.170,0.04300
2.330,0.04320
2.500,0.04290
2.670,0.04190
2.830,0.04930
3.000,0.04050
3.170,0.04170
3.330,0.04640
3.500,0.04780
3.670,0.05210
3.830,0.05440
4.000,0.05870
4.170,0.05440
4.330,0.05590
4.500,0.05600
4.670,0.05700
4.830,0.06560
5.000,0.06700
5.170,0.07400
5.330,0.07100
5.500,0.06900
5.670,0.07070
5.830,0.07220
6.000,0.06720
6.170,0.07009
6.330,0.06910
6.500,0.06770
6.670,0.06880
6.830,0.06980
7.000,0.06790
7.170,0.07060
7.330,0.07250
7.500,0.07210
7.670,0.07280
7.830,0.07360
8.000,0.07300
8.170,0.07400
8.330,0.07380
8.500,0.07500
8.670,0.07060
8.830,0.07060
9.000,0.06980
9.170,0.05920
9.330,0.06770
9.500,0.07510
9.670,0.07620
9.830,0.07790
10.000,0.07390
10.200,0.07400
10.300,0.07130
10.500,0.07200
10.700,0.07100
10.800,0.07200
11.000,0.07300
11.200,0.07280
11.300,0.07500
11.500,0.07600
11.700,0.07600
11.800,0.09700
12.000,0.09760
12.200,0.09770
12.300,0.08780
12.500,0.09790
12.700,0.09790
12.800,0.08780
13.000,0.09807
13.200,0.09811
13.300,0.09849
13.500,0.09886
13.700,0.09690
13.800,0.08990
14.000,0.09200
14.200,0.09560
14.300,0.09330
14.500,0.10002
14.700,0.10077
14.800,0.10027
15.000,0.10190
15.200,0.09940
15.300,0.09960
15.500,0.10140
15.700,0.09890
15.800,0.10260
16.000,0.10320
16.200,0.10180
16.300,0.10460
16.500,0.10150
16.700,0.10370
16.800,0.11390
17.000,0.11465
17.200,0.11377
17.300,0.11614
17.500,0.12012
17.700,0.12260
17.800,0.12220
18.000,0.12262
18.200,0.12012
18.300,0.12838
18.500,0.14110
18.700,0.14334
18.800,0.14577
19.000,0.14243
19.200,0.14572
19.300,0.14985
19.500,0.15407
19.700,0.15942
19.800,0.16297
20.000,0.16698
20.200,0.17877
20.300,0.17964
20.500,0.17617
20.700,0.17871
20.800,0.17607
21.000,0.18569
21.200,0.18017
21.300,0.18109
21.500,0.18151
21.700,0.18297
21.800,0.18357
22.000,0.18321
22.200,0.18123
22.300,0.18212
22.500,0.18370
22.700,0.18515
22.800,0.18758
23.000,0.19183
23.200,0.19281
23.300,0.19670
23.500,0.19824
23.700,0.20436
23.800,0.20750
24.000,0.21187
24.200,0.21667
24.300,0.21794
24.500,0.23284
24.700,0.23641
24.800,0.23563
25.000,0.23896
25.200,0.23981
25.300,0.24225
25.500,0.24578
25.700,0.25876
25.800,0.26604
26.000,0.26754
26.200,0.28190
26.300,0.29316
26.500,0.30643
26.700,0.31567
26.800,0.32032
27.000,0.32340
27.200,0.32715
27.300,0.32942
27.500,0.33098
27.700,0.34135
27.800,0.34482
28.000,0.34706
28.200,0.35060
28.300,0.35278
28.500,0.35474
28.700,0.35523
28.800,0.36810
29.000,0.37834
29.200,0.38047
29.300,0.38200
29.500,0.39976
29.700,0.39031
29.800,0.39090
30.000,0.39220
30.200,0.40370
30.300,0.41280
30.500,0.42170
30.700,0.43180
30.800,0.44100
31.000,0.46200
31.200,0.48200
31.300,0.49000
31.500,0.49660
31.700,0.50230
31.800,0.51000
32.000,0.51960
32.200,0.52400
32.300,0.53490
32.500,0.54420
32.700,0.55140
32.800,0.55840
33.000,0.56700
33.200,0.58123
33.300,0.59020
33.500,0.59670
33.700,0.60380
33.800,0.61270
34.000,0.61270
34.200,0.62240
34.300,0.62760
34.500,0.64530
34.700,0.65180
34.800,0.66610
35.000,0.67540
35.200,0.68240
35.300,0.69370
35.500,0.70180
35.700,0.70990
35.800,0.70180
36.000,0.70810
36.200,0.71250
36.300,0.71260
36.500,0.71280
0.000,0.00558
0.170,0.00308
0.330,0.00096
0.500,0.00139
0.670,0.00253
0.830,0.00163
1.000,0.00070
1.170,0.00057
1.330,0.00072
1.500,0.00096
1.670,0.00135
1.830,0.00258
2.000,0.00483
2.170,0.00640
2.330,0.00854
2.500,0.01032
2.670,0.01025
2.830,0.01050
3.000,0.01167
3.170,0.01292
3.330,0.01311
3.500,0.01453
3.670,0.01464
3.830,0.01678
4.000,0.01922
4.170,0.02047
4.330,0.02184
4.500,0.02172
4.670,0.02208
4.830,0.02226
5.000,0.02125
5.170,0.02209
5.330,0.02191
5.500,0.02203
5.670,0.02203
5.830,0.02197
6.000,0.02119
6.170,0.02305
6.330,0.02341
6.500,0.02276
6.670,0.02204
6.830,0.02227
7.000,0.02382
7.170,0.02388
7.330,0.02346
7.500,0.02497
7.670,0.02455
7.830,0.02550
8.000,0.02509
8.170,0.02562
8.330,0.02646
8.500,0.02706
8.670,0.02743
8.830,0.02737
9.000,0.02700
9.170,0.02864
9.330,0.02858
9.500,0.02955
9.670,0.03205
9.830,0.03312
10.000,0.03254
10.200,0.03387
10.300,0.03266
10.500,0.03309
10.700,0.03323
10.800,0.03400
11.000,0.03500
11.200,0.03620
11.300,0.03615
11.500,0.03644
11.700,0.03698
11.800,0.03688
12.000,0.03804
12.200,0.03764
12.300,0.03868
12.500,0.03946
12.700,0.03984
12.800,0.04181
13.000,0.04050
13.200,0.04254
13.300,0.04215
13.500,0.04390
13.700,0.04049
13.800,0.03976
14.000,0.03980
14.200,0.04074
14.300,0.04196
14.500,0.04356
14.700,0.04470
14.800,0.04551
15.000,0.04690
15.200,0.04866
15.300,0.04957
15.500,0.05084
15.700,0.05318
15.800,0.05423
16.000,0.05621
16.200,0.05888
16.300,0.06154
16.500,0.06207
16.700,0.06664
16.800,0.06919
17.000,0.07150
17.200,0.07308
17.300,0.07708
17.500,0.08036
17.700,0.08266
17.800,0.08557
18.000,0.08977
18.200,0.09169
18.300,0.09521
18.500,0.09858
18.700,0.10352
18.800,0.10766
19.000,0.10751
19.200,0.10875
19.300,0.10160
19.500,0.11150
19.700,0.10990
19.800,0.10930
20.000,0.11222
20.200,0.11130
20.300,0.11210
20.500,0.12451
20.700,0.12650
20.800,0.13170
21.000,0.14240
21.200,0.13990
21.300,0.14260
21.500,0.14285
21.700,0.14030
21.800,0.14160
22.000,0.14360
22.200,0.14770
22.300,0.14880
22.500,0.14800
22.700,0.15300
22.800,0.15080
23.000,0.15570
23.200,0.15790
23.300,0.16030
23.500,0.16070
23.700,0.16250
23.800,0.16520
24.000,0.17000
24.200,0.17300
24.300,0.17570
24.500,0.18220
24.700,0.18600
24.800,0.18580
25.000,0.18820
25.200,0.19600
25.300,0.19870
25.500,0.20520
25.700,0.20660
25.800,0.21110
26.000,0.21380
26.200,0.21980
26.300,0.22510
26.500,0.22500
26.700,0.22980
26.800,0.23690
27.000,0.24660
27.200,0.25180
27.300,0.25760
27.500,0.26240
27.700,0.27100
27.800,0.27570
28.000,0.28480
28.200,0.29450
28.300,0.30070
28.500,0.30960
28.700,0.30080
28.800,0.30620
29.000,0.31000
29.200,0.31600
29.300,0.32360
29.500,0.32200
29.700,0.32920
29.800,0.33139
30.000,0.33369
30.200,0.33948
30.300,0.34119
30.500,0.34561
30.700,0.34422
30.800,0.35604
31.000,0.35918
31.200,0.35840
31.300,0.36009
31.500,0.36429
31.700,0.36487
31.800,0.37893
32.000,0.37398
32.200,0.38536
32.300,0.38550
32.500,0.38568
32.700,0.39074
32.800,0.39537
33.000,0.39609
33.200,0.39821
33.300,0.39853
33.500,0.39950
33.700,0.40182
33.800,0.40206
34.000,0.40444
34.200,0.40481
34.300,0.40774
34.500,0.40963
34.700,0.41287
34.800,0.41347
35.000,0.41597
35.200,0.41836
35.300,0.41627
35.500,0.41329
35.700,0.41633
35.800,0.41577
36.000,0.41716
36.200,0.41715
36.300,0.41735
36.500,0.41982
36.700,0.42140
36.800,0.42599
37.000,0.42967
37.200,0.43104
37.300,0.43180
37.500,0.43326
37.700,0.43393
37.800,0.43327
38.000,0.43524
38.200,0.43376
38.300,0.43318
38.500,0.43406
38.700,0.43603
38.800,0.43552
39.000,0.43866
39.200,0.43991
39.300,0.44125
39.500,0.44119
39.700,0.44327
39.800,0.44528
40.000,0.44543
40.200,0.44608
40.300,0.44569
40.500,0.44884
40.700,0.44886
40.800,0.45000
41.000,0.44924
41.200,0.44978
41.300,0.45149
41.500,0.45167
41.700,0.44959
41.800,0.44825
42.000,0.44933
42.200,0.44774
42.300,0.44721
42.500,0.44677
42.700,0.44876
42.800,0.44677
43.000,0.44668
43.200,0.44685
43.300,0.44855
43.500,0.44892
43.700,0.44884
43.800,0.44953
44.000,0.45116
44.200,0.44764
44.300,0.45003
44.500,0.44957
44.700,0.45084
44.800,0.44921
45.000,0.45671
45.200,0.46329
45.300,0.46395
45.500,0.46698
45.700,0.46721
45.800,0.46727
46.000,0.46758
46.200,0.46896
46.300,0.46926
46.500,0.46874
46.700,0.46715
46.800,0.46721
47.000,0.46837
47.200,0.46570
47.300,0.47005
47.500,0.46884
47.700,0.46873
47.800,0.46879
48.000,0.47092
48.200,0.47271
48.300,0.47218
48.500,0.47538
48.700,0.46844
48.800,0.46604
49.000,0.46514
49.200,0.46628
49.300,0.46838
49.500,0.46970
49.700,0.46802
49.800,0.46646
50.000,0.46755
0.000,0.01107
0.170,0.00660
0.330,0.00217
0.500,0.00191
0.670,0.00044
0.830,0.00245
1.000,0.00357
1.170,0.00556
1.330,0.00590
1.500,0.00533
3.670,0.00694
3.830,0.00676
4.000,0.00694
4.170,0.00625
4.330,0.00625
4.500,0.00676
4.670,0.00498
4.830,0.00440
5.000,0.00382
5.170,0.00255
5.330,0.00686
5.500,0.01321
5.670,0.01697
5.830,0.01740
6.000,0.01841
6.170,0.01873
6.330,0.02032
6.500,0.02000
6.670,0.02036
6.830,0.02050
7.000,0.02037
7.170,0.02109
7.330,0.02156
7.500,0.02126
7.670,0.02428
7.830,0.02156
8.000,0.02223
8.170,0.02104
8.330,0.02236
8.500,0.02341
8.670,0.02341
8.830,0.02413
9.000,0.02465
9.170,0.02303
9.330,0.02307
9.500,0.02302
9.670,0.02314
9.830,0.02321
10.000,0.02322
10.200,0.02305
10.300,0.02301
10.500,0.02498
10.700,0.02417
10.800,0.02455
11.000,0.02302
11.200,0.02502
11.300,0.02596
11.500,0.02581
11.700,0.02307
11.800,0.02311
12.000,0.02312
12.200,0.02310
12.300,0.02308
12.500,0.02309
12.700,0.02319
12.800,0.02324
13.000,0.02321
13.200,0.02326
13.300,0.02330
13.500,0.02341
13.700,0.02478
13.800,0.02463
14.000,0.02469
14.200,0.02338
14.300,0.02591
14.500,0.02456
14.700,0.02474
14.800,0.02548
15.000,0.02683
15.200,0.03214
15.300,0.03193
15.500,0.03435
15.700,0.03591
15.800,0.03642
16.000,0.03815
16.200,0.03906
16.300,0.03636
16.500,0.03549
16.700,0.03591
16.800,0.03869
17.000,0.03930
17.200,0.03920
17.300,0.03969
17.500,0.03819
17.700,0.04466
17.800,0.04629
18.000,0.04664
18.200,0.04886
18.300,0.04876
18.500,0.05006
18.700,0.04939
18.800,0.04757
19.000,0.04758
19.200,0.04413
19.300,0.04596
19.500,0.04404
19.700,0.04879
19.800,0.04926
20.000,0.04833
20.200,0.04958
20.300,0.04946
20.500,0.05342
20.700,0.05063
20.800,0.05035
21.000,0.05179
21.200,0.04722
21.300,0.04926
21.500,0.04954
21.700,0.05235
21.800,0.05722
22.000,0.05943
22.200,0.05873
22.300,0.05887
22.500,0.05949
22.700,0.06182
22.800,0.06241
23.000,0.06587
23.200,0.06624
23.300,0.06816
23.500,0.06946
23.700,0.06701
23.800,0.06762
24.000,0.06969
24.200,0.06719
24.300,0.07041
24.500,0.07330
24.700,0.07601
24.800,0.08737
25.000,0.09032
25.200,0.09381
25.300,0.10527
25.500,0.10728
25.700,0.11946
25.800,0.11225
26.000,0.11494
26.200,0.12712
26.300,0.12849
26.500,0.12776
26.700,0.13779
26.800,0.13858
27.000,0.13697
27.200,0.14212
27.300,0.14413
27.500,0.16625
27.700,0.16852
27.800,0.15091
28.000,0.16148
28.200,0.16355
28.300,0.16541
28.500,0.16826
28.700,0.16583
28.800,0.16896
29.000,0.16209
29.200,0.16573
29.300,0.17802
29.500,0.17008
29.700,0.18335
29.800,0.18676
30.000,0.18026
30.200,0.19215
30.300,0.19656
30.500,0.19591
30.700,0.19013
30.800,0.20882
31.000,0.20139
31.200,0.20432
31.300,0.21731
31.500,0.21446
31.700,0.21757
31.800,0.21344
32.000,0.22668
32.200,0.22825
32.300,0.23160
32.500,0.24229
32.700,0.24490
32.800,0.25772
33.000,0.26680
33.200,0.26276
33.300,0.26118
33.500,0.27934
33.700,0.27946
33.800,0.27256
34.000,0.27600
34.200,0.27811
34.300,0.28033
34.500,0.28349
34.700,0.28642
34.800,0.28988
35.000,0.28052
35.200,0.28105
35.300,0.28216
35.500,0.28611
35.700,0.29987
35.800,0.28571
36.000,0.29133
36.200,0.28898
36.300,0.28150
36.500,0.29506
36.700,0.29637
36.800,0.29940
37.000,0.30176
37.200,0.30693
37.300,0.30448
37.500,0.30722
37.700,0.30807
37.800,0.31720
38.000,0.31715
38.200,0.31785
38.300,0.32070
38.500,0.32922
38.700,0.32424
38.800,0.33683
39.000,0.33259
39.200,0.34692
39.300,0.32960
39.500,0.33068
39.700,0.34905
39.800,0.34190
40.000,0.35971
40.200,0.36660
40.300,0.34340
40.500,0.34169
40.700,0.35493
40.800,0.35562
41.000,0.35771
41.200,0.36787
41.300,0.36185
41.500,0.36560
41.700,0.36912
41.800,0.37345
42.000,0.36529
42.200,0.36629
42.300,0.37576
42.500,0.37019
42.700,0.37320
42.800,0.37501
43.000,0.37613
43.200,0.38508
43.300,0.38646
43.500,0.38714
43.700,0.38864
43.800,0.38227
44.000,0.38543
44.200,0.39077
44.300,0.39430
44.500,0.39061
44.700,0.39157
44.800,0.38460
45.000,0.40565
45.200,0.39760
45.300,0.39173
45.500,0.40712
45.700,0.40931
45.800,0.40805
46.000,0.40692
46.200,0.40329
46.300,0.40221
46.500,0.40011
46.700,0.39819
46.800,0.39716
47.000,0.39473
47.200,0.41177
47.300,0.42338
47.500,0.42813
47.700,0.42376
47.800,0.42736
48.000,0.41754
48.200,0.41958
48.300,0.42209
48.500,0.41507
48.700,0.41350
48.800,0.41385
49.000,0.41305
49.200,0.41368
49.300,0.41280
49.500,0.41075
49.700,0.40110
49.800,0.39739
50.000,0.40357
0.500,0.00670
1.000,0.01050
1.500,0.01530
2.000,0.01760
2.500,0.01410
3.000,0.02790
3.500,0.02150
4.000,0.02450
4.500,0.02630
5.000,0.02540
5.500,0.03540
6.000,0.03710
6.500,0.03610
7.000,0.04510
7.500,0.04850
8.000,0.03990
8.500,0.05000
9.000,0.04920
9.500,0.04840
10.000,0.05220
10.500,0.05490
11.000,0.05180
11.500,0.05120
12.000,0.05310
12.500,0.04810
13.000,0.06440
13.500,0.06160
14.000,0.06740
14.500,0.07160
15.000,0.07380
15.500,0.06860
16.000,0.07020
16.500,0.06960
17.000,0.07360
17.500,0.07580
18.000,0.08400
18.500,0.07830
19.000,0.07290
19.500,0.07670
20.000,0.07800
20.500,0.07630
21.000,0.07380
21.500,0.08100
22.000,0.07560
22.500,0.08820
23.000,0.09450
23.500,0.07530
24.000,0.09780
24.500,0.06660
25.000,0.07210
25.500,0.08050
26.000,0.07870
26.500,0.08520
27.000,0.09300
27.500,0.08540
28.000,0.08550
28.500,0.08600
29.000,0.08790
29.500,0.07700
30.000,0.08070
30.500,0.08020
31.000,0.07670
31.500,0.07430
32.000,0.07660
32.500,0.08340
33.000,0.07550
33.500,0.07780
34.000,0.07330
34.500,0.08630
35.000,0.08460
35.500,0.07870
36.000,0.07920
36.500,0.08340
37.000,0.09170
37.500,0.09110
38.000,0.08630
38.500,0.08440
39.000,0.07590
39.500,0.07610
40.000,0.07800
40.500,0.07440
41.000,0.07260
41.500,0.07020
42.000,0.07210
42.500,0.07740
43.000,0.08330
43.500,0.10040
44.000,0.08610
44.500,0.08130
45.000,0.08110
45.500,0.08840
46.000,0.08260
46.500,0.09810
47.000,0.09250
1.000,0.00030
1.500,0.02540
2.000,0.03400
2.500,0.06400
3.000,0.07390
3.500,0.08950
4.000,0.09020
4.500,0.09080
5.000,0.10220
5.500,0.10420
6.000,0.09930
6.500,0.10390
7.000,0.10200
7.500,0.11380
8.000,0.12230
8.500,0.12100
9.000,0.12760
9.500,0.11270
10.000,0.11190
10.500,0.11020
11.000,0.11480
11.500,0.11650
12.000,0.12280
12.500,0.11780
13.000,0.12750
13.500,0.12120
14.000,0.12630
14.500,0.12700
15.000,0.12940
15.500,0.13250
16.000,0.13410
16.500,0.12980
17.000,0.13510
17.500,0.13690
18.000,0.13830
18.500,0.14120
19.000,0.13970
19.500,0.14160
20.000,0.13920
20.500,0.14640
21.000,0.14730
21.500,0.13730
22.000,0.14220
22.500,0.13960
23.000,0.14500
23.500,0.16240
24.000,0.15970
24.500,0.16370
25.000,0.16340
25.500,0.16250
26.000,0.17980
26.500,0.16690
27.000,0.16590
27.500,0.15520
28.000,0.15360
28.500,0.15190
29.000,0.16650
29.500,0.16770
30.000,0.16670
30.500,0.16190
31.000,0.16910
31.500,0.16400
32.000,0.16750
32.500,0.16080
33.000,0.16140
33.500,0.16110
34.000,0.16500
34.500,0.16410
35.000,0.16390
35.500,0.16610
36.000,0.17770
36.500,0.17570
37.000,0.18870
37.500,0.19360
38.000,0.19440
38.500,0.19170
39.000,0.19700
39.500,0.19620
40.000,0.20120
40.500,0.19640
41.000,0.20010
41.500,0.21000
42.000,0.21000
42.500,0.19600
43.000,0.20320
43.500,0.18930
44.000,0.20410
44.500,0.20710
45.000,0.20320
45.500,0.20600
46.000,0.21210
46.500,0.19070
47.000,0.22050
0.500,0.01220
1.000,0.05680
1.500,0.08900
2.000,0.11230
2.500,0.13200
3.000,0.15620
3.500,0.16440
4.000,0.19240
4.500,0.20790
5.000,0.23120
5.500,0.26140
6.000,0.26610
6.500,0.28030
7.000,0.30550
7.500,0.31710
8.000,0.33170
8.500,0.34740
9.000,0.36330
9.500,0.37810
10.000,0.38900
10.500,0.39370
11.000,0.39700
11.500,0.40440
12.000,0.41040
12.500,0.41940
13.000,0.41780
13.500,0.44110
14.000,0.44970
14.500,0.46120
15.000,0.46380
15.500,0.47510
16.000,0.48610
16.500,0.49740
17.000,0.50260
17.500,0.52470
18.000,0.53830
18.500,0.55010
19.000,0.57140
19.500,0.59150
20.000,0.60330
20.500,0.61150
0.000,0.00370
0.170,0.00610
0.330,0.00080
0.500,0.01310
0.670,0.06960
0.830,0.12550
1.000,0.16390
1.170,0.19760
1.330,0.22380
1.500,0.23310
1.670,0.24040
1.830,0.25440
2.000,0.27030
2.170,0.28700
2.330,0.30230
2.500,0.32400
2.670,0.35200
2.830,0.37260
3.000,0.39000
3.170,0.40500
3.330,0.42100
3.500,0.43440
3.670,0.44370
3.830,0.44420
4.000,0.45300
4.170,0.46320
4.330,0.46500
4.500,0.47420
4.670,0.48960
4.830,0.48610
5.000,0.48380
5.170,0.49390
5.330,0.49080
5.500,0.50020
5.670,0.51220
5.830,0.51250
6.000,0.52120
6.170,0.52890
6.330,0.53650
6.500,0.55280
0.000,0.01110
0.170,0.00350
0.330,0.05540
0.500,0.11200
0.670,0.17980
0.830,0.23030
1.000,0.25930
1.170,0.27520
1.330,0.29150
1.500,0.31030
1.670,0.33250
1.830,0.35380
2.000,0.37950
2.170,0.40180
2.330,0.42430
2.500,0.44190
2.670,0.45050
2.830,0.45920
3.000,0.47620
3.170,0.48820
3.330,0.49050
3.500,0.50450
3.670,0.50940
3.830,0.51830
4.000,0.51500
4.170,0.53560
4.330,0.55160
4.500,0.56370
4.670,0.56420
0.000,0.00340
0.170,0.06610
0.330,0.14690
0.500,0.19300
0.670,0.23210
0.830,0.26500
1.000,0.30110
1.170,0.33280
1.330,0.36950
1.500,0.40860
1.670,0.44400
1.830,0.47460
2.000,0.50060
2.170,0.52580
2.330,0.53940
2.500,0.55400
2.670,0.55770
2.830,0.57330
3.000,0.58780
3.170,0.59060
3.330,0.60130
3.500,0.60760
3.670,0.61430
3.830,0.61150
4.000,0.61880
4.170,0.61890
4.330,0.61970
4.500,0.62130
0.500,0.00287
0.670,0.00252
0.830,0.00995
1.000,0.01641
1.170,0.01943
1.330,0.03085
1.500,0.03427
1.670,0.03960
1.830,0.04614
2.000,0.04662
2.170,0.05302
2.330,0.05451
2.500,0.06193
2.670,0.06579
2.830,0.06559
3.000,0.07325
3.170,0.07879
3.330,0.08529
3.500,0.08240
3.670,0.08987
3.830,0.09542
4.000,0.09494
4.170,0.09875
4.330,0.10579
4.500,0.10145
4.670,0.11037
4.830,0.11693
5.000,0.12321
5.170,0.12152
5.330,0.12900
5.500,0.13207
5.670,0.14301
5.830,0.14180
6.000,0.15614
6.170,0.14952
6.330,0.15484
6.500,0.17967
6.670,0.16534
6.830,0.16727
7.000,0.18860
7.170,0.17753
7.330,0.18743
7.500,0.19873
7.670,0.19468
7.830,0.20223
8.000,0.21699
8.170,0.21665
8.330,0.21815
8.500,0.23442
8.670,0.22924
8.830,0.23671
9.000,0.25755
9.170,0.25432
9.330,0.25817
9.500,0.27897
9.670,0.27578
9.830,0.28132
10.000,0.29531
10.170,0.30206
10.330,0.30913
10.500,0.32337
10.670,0.32844
10.830,0.33690
11.000,0.34752
11.170,0.36313
11.330,0.36845
11.500,0.37957
11.670,0.38977
11.830,0.39867
12.000,0.40644
12.170,0.41608
12.330,0.42551
12.500,0.43760
12.670,0.44721
12.830,0.45473
13.000,0.46221
13.170,0.47102
13.330,0.48805
13.500,0.49712
13.670,0.50821
13.830,0.52137
14.000,0.53054
14.170,0.53763
14.330,0.54696
14.500,0.55469
14.670,0.56942
14.830,0.57615
15.000,0.58173
15.170,0.59598
15.330,0.60588
15.500,0.60902
15.670,0.60972
15.830,0.60201
16.000,0.62057
16.170,0.62829
16.330,0.63244
16.500,0.65096
16.670,0.64879
16.830,0.66600
17.000,0.67386
17.170,0.68603
17.330,0.68315
17.500,0.69098
17.670,0.70150
17.830,0.67663
18.000,0.68302
18.170,0.69374
18.330,0.69793
18.500,0.72040
18.670,0.73559
18.830,0.73784
0.500,0.01150
1.000,0.01040
1.500,0.01540
2.000,0.02880
2.500,0.03670
3.000,0.05890
3.500,0.06230
4.000,0.07380
4.500,0.09136
5.000,0.10610
5.500,0.11660
6.000,0.12140
6.500,0.13660
7.000,0.15880
7.500,0.17810
8.000,0.19550
8.500,0.20640
9.000,0.20210
9.500,0.21010
10.000,0.22230
10.500,0.22860
11.000,0.23150
11.500,0.23420
12.000,0.25950
12.500,0.26250
13.000,0.28350
13.500,0.30380
14.000,0.31490
14.500,0.31820
15.000,0.32990
15.500,0.34140
16.000,0.35800
16.500,0.38270
17.000,0.41230
17.500,0.45330
18.000,0.51850
18.500,0.58680
19.000,0.62810
19.500,0.65320
20.000,0.77080
0.500,0.01660
0.670,0.01610
0.830,0.01540
1.000,0.02310
1.170,0.02330
1.330,0.02833
1.500,0.02890
1.670,0.03680
1.830,0.03610
2.000,0.03650
2.170,0.04300
2.330,0.04320
2.500,0.04290
2.670,0.04190
2.830,0.04930
3.000,0.04050
3.170,0.04170
3.330,0.04640
3.500,0.04780
3.670,0.05210
3.830,0.05440
4.000,0.05870
4.170,0.05440
4.330,0.05590
4.500,0.05600
4.670,0.05700
4.830,0.06560
5.000,0.06700
5.170,0.07400
5.330,0.07100
5.500,0.06900
5.670,0.07070
5.830,0.07220
6.000,0.06720
6.170,0.07009
6.330,0.06910
6.500,0.06770
6.670,0.06880
6.830,0.06980
7.000,0.06790
7.170,0.07060
7.330,0.07250
7.500,0.07210
7.670,0.07280
7.830,0.07360
8.000,0.07300
8.170,0.07400
8.330,0.07380
8.500,0.07500
8.670,0.07060
8.830,0.07060
9.000,0.06980
9.170,0.05920
9.330,0.06770
9.500,0.07510
9.670,0.07620
9.830,0.07790
10.000,0.07390
10.170,0.07400
10.330,0.07130
10.500,0.07200
10.670,0.07100
10.830,0.07200
11.000,0.07300
11.170,0.07280
11.330,0.07500
11.500,0.07600
11.670,0.07600
11.830,0.09700
12.000,0.09760
12.170,0.09770
12.330,0.08780
12.500,0.09790
12.670,0.09790
12.830,0.08780
13.000,0.09807
13.170,0.09811
13.330,0.09849
13.500,0.09886
13.670,0.09690
13.830,0.08990
14.000,0.09200
14.170,0.09560
14.330,0.09330
14.500,0.10002
14.670,0.10077
14.830,0.10027
15.000,0.10190
15.170,0.09940
15.330,0.09960
15.500,0.10140
15.670,0.09890
15.830,0.10260
16.000,0.10320
16.170,0.10180
16.330,0.10460
16.500,0.10150
16.670,0.10370
16.830,0.11390
17.000,0.11465
17.170,0.11377
17.330,0.11614
17.500,0.12012
17.670,0.12126
17.830,0.12220
18.000,0.12615
18.170,0.12012
18.330,0.12838
18.500,0.14110
18.670,0.14334
18.830,0.14577
19.000,0.14243
19.170,0.14575
19.330,0.14985
19.500,0.15407
19.670,0.15942
19.830,0.16293
20.000,0.16698
20.170,0.17877
20.330,0.17964
20.500,0.17617
20.670,0.17871
20.830,0.17607
21.000,0.18569
21.170,0.18017
21.330,0.18109
21.500,0.18151
21.670,0.18297
21.830,0.18357
22.000,0.18321
22.170,0.18123
22.330,0.18212
22.500,0.18370
22.670,0.18515
22.830,0.18758
23.000,0.19183
23.170,0.19281
23.330,0.19670
23.500,0.19824
23.670,0.20436
23.830,0.20750
24.000,0.21187
24.170,0.21667
24.330,0.21794
24.500,0.23284
24.670,0.23641
24.830,0.23563
25.000,0.23896
25.170,0.23981
25.330,0.24225
25.500,0.24578
25.670,0.25876
25.830,0.26604
26.000,0.26754
26.170,0.28190
26.330,0.29316
26.500,0.30643
26.670,0.31567
26.830,0.32032
27.000,0.32340
27.170,0.32715
27.330,0.32942
27.500,0.33098
27.670,0.34135
27.830,0.34482
28.000,0.34706
28.170,0.35060
28.330,0.35278
28.500,0.35474
28.670,0.35523
28.830,0.36810
29.170,0.38047
29.330,0.38200
29.500,0.39976
29.670,0.39031
29.830,0.39090
30.000,0.39220
30.170,0.40370
30.330,0.41280
30.500,0.42170
30.670,0.43180
30.830,0.44100
31.000,0.46200
31.170,0.48200
31.330,0.49000
31.500,0.49660
31.670,0.50230
31.830,0.51000
32.000,0.51960
32.170,0.52400
32.330,0.53490
32.500,0.54420
32.670,0.55140
32.830,0.55840
33.000,0.56700
33.170,0.58123
33.330,0.59020
33.500,0.59670
33.670,0.60380
33.830,0.61270
34.000,0.61270
34.170,0.62240
34.330,0.62760
34.500,0.64530
34.670,0.65180
34.830,0.66610
35.000,0.67540
35.170,0.68240
35.330,0.69370
35.500,0.70180
35.670,0.70990
35.830,0.70180
36.000,0.70810
36.170,0.71250
36.330,0.71260
36.500,0.71280
1.000,0.00154
1.170,0.00601
1.330,0.00510
1.500,0.00743
1.670,0.00872
1.830,0.01319
2.000,0.01665
2.170,0.01718
2.330,0.01889
2.500,0.01898
2.670,0.01178
2.830,0.00767
3.000,0.01118
3.170,0.02530
3.330,0.02207
3.500,0.02428
3.670,0.02689
3.830,0.02496
4.000,0.02766
4.170,0.02556
4.330,0.02279
4.500,0.02331
4.670,0.02522
4.830,0.02731
5.000,0.02514
5.170,0.02218
5.330,0.02027
5.500,0.01871
5.670,0.01836
5.830,0.01931
6.000,0.01514
6.170,0.01601
6.330,0.01627
6.500,0.01480
6.670,0.01410
6.830,0.01228
7.000,0.01305
7.170,0.01436
7.330,0.01419
7.500,0.01220
7.670,0.01236
7.830,0.01384
8.000,0.01367
8.170,0.01479
8.330,0.01358
8.500,0.01366
8.670,0.01296
8.830,0.01254
9.000,0.01531
9.170,0.01367
9.330,0.01349
9.500,0.01609
9.670,0.01783
9.830,0.01452
10.000,0.01514
10.170,0.01486
10.330,0.01348
10.500,0.01434
10.670,0.01348
10.830,0.01435
11.000,0.01226
11.170,0.01470
11.330,0.01452
11.500,0.01565
11.670,0.01452
11.830,0.01520
12.000,0.01625
12.170,0.01285
12.330,0.01276
12.500,0.01356
12.670,0.01373
12.830,0.01565
13.000,0.01424
13.170,0.01399
13.330,0.01643
13.500,0.01382
13.670,0.01529
13.830,0.01443
14.000,0.01582
14.170,0.01443
14.330,0.01250
14.500,0.01208
14.670,0.01051
14.830,0.00988
15.000,0.00822
15.170,0.01582
15.330,0.01695
15.500,0.01635
15.670,0.01748
15.830,0.01539
16.000,0.01887
16.170,0.01635
16.330,0.01696
16.500,0.01713
16.670,0.01574
16.830,0.01548
17.000,0.01338
17.170,0.01356
17.330,0.01539
17.500,0.01712
17.670,0.01826
17.830,0.01270
18.000,0.01609
18.170,0.01992
18.330,0.01222
18.500,0.01244
18.670,0.01000
18.830,0.01645
19.000,0.01940
19.170,0.01748
19.330,0.01983
19.500,0.00481
19.670,0.01578
19.830,0.01924
20.000,0.01566
20.170,0.01531
20.330,0.01540
20.500,0.00882
20.670,0.00721
20.830,0.00666
21.000,0.01908
21.170,0.02268
21.330,0.02764
21.500,0.01748
21.670,0.01825
21.830,0.01782
22.000,0.01935
22.170,0.01544
22.330,0.01620
22.500,0.01357
22.670,0.01289
22.830,0.01650
23.000,0.02088
23.170,0.01984
23.330,0.01645
23.500,0.01332
23.670,0.01871
23.830,0.01071
24.000,0.01410
24.170,0.01784
24.330,0.01019
24.500,0.01357
24.670,0.01384
24.830,0.01732
25.000,0.02079
25.170,0.01262
25.330,0.01280
25.500,0.01491
25.670,0.01138
25.830,0.01135
26.000,0.01437
26.170,0.01805
26.330,0.01960
26.500,0.02557
26.670,0.01951
26.830,0.02131
27.000,0.01986
27.170,0.02139
27.330,0.01305
27.500,0.02617
27.670,0.01836
27.830,0.01931
28.000,0.01514
28.170,0.01601
28.330,0.01627
28.500,0.01480
28.670,0.01410
28.830,0.01228
29.170,0.01436
29.330,0.01419
29.500,0.01220
29.670,0.01236
29.830,0.01384
30.000,0.01367
30.170,0.01479
30.330,0.01358
30.500,0.01366
30.670,0.01296
30.830,0.01254
31.000,0.01531
31.170,0.01367
31.330,0.01349
31.500,0.01609
31.670,0.01783
31.830,0.01452
32.000,0.01514
32.170,0.01486
32.330,0.01348
32.500,0.01434
32.670,0.01348
32.830,0.01435
33.000,0.01226
33.170,0.01470
33.330,0.01452
33.500,0.01565
33.670,0.01452
33.830,0.01520
34.000,0.01625
34.170,0.01285
34.330,0.01276
34.500,0.01356
34.670,0.01373
34.830,0.01565
35.000,0.02210
35.170,0.02184
35.330,0.02350
35.500,0.02062
35.670,0.02105
35.830,0.02044
36.000,0.01844
36.170,0.01443
36.330,0.01250
36.500,0.01208
36.670,0.01871
36.830,0.01836
37.000,0.01931
37.170,0.01514
37.330,0.01601
37.500,0.01627
37.670,0.01480
37.830,0.02166
38.000,0.02244
38.170,0.02427
38.330,0.02505
38.500,0.02488
38.670,0.02313
38.830,0.02357
39.000,0.02062
39.170,0.01966
39.330,0.02001
39.500,0.01879
39.670,0.01366
39.830,0.01296
40.000,0.01254
40.170,0.01531
40.330,0.01367
40.500,0.01349
40.670,0.01609
40.830,0.01783
41.000,0.01452
41.170,0.01514
41.330,0.01486
41.500,0.01348
41.670,0.01434
41.830,0.01348
42.000,0.01696
42.170,0.01514
42.330,0.01757
42.500,0.01870
42.670,0.01957
42.830,0.01818
43.000,0.01861
43.170,0.01966
43.330,0.01599
43.500,0.01512
43.670,0.01356
43.830,0.01373
44.000,0.01565
44.170,0.01424
44.330,0.01399
44.500,0.01643
44.670,0.01382
44.830,0.01529
0.000,0.00085
0.330,0.00060
0.830,0.00185
1.000,0.00373
1.170,0.00300
1.330,0.00224
1.500,0.00042
1.670,0.00041
1.830,0.00033
2.000,0.00377
2.170,0.00484
2.330,0.00607
2.500,0.00461
2.670,0.00144
3.000,0.00005
3.500,0.01089
3.670,0.00709
3.830,0.00855
4.000,0.00762
4.170,0.00707
4.330,0.00818
4.500,0.00674
4.670,0.00859
4.830,0.00717
5.000,0.00876
5.170,0.01413
5.330,0.01486
5.500,0.01499
5.670,0.01555
5.830,0.01485
6.000,0.01212
6.170,0.01218
6.330,0.01193
6.500,0.01045
6.670,0.01240
6.830,0.01086
7.000,0.01012
7.170,0.01095
7.330,0.01073
7.500,0.01026
7.670,0.00467
7.830,0.00879
8.000,0.01365
8.170,0.01540
8.330,0.01404
8.500,0.01503
8.670,0.01564
8.830,0.01540
9.000,0.01477
9.170,0.01393
9.330,0.01448
9.500,0.01417
9.670,0.01460
9.830,0.01337
10.000,0.01254
10.170,0.01211
10.330,0.01107
10.500,0.01132
10.670,0.01242
10.830,0.01347
11.000,0.01285
11.170,0.01305
11.330,0.01150
11.500,0.01169
11.670,0.01112
11.830,0.01040
12.000,0.01058
12.170,0.01044
12.330,0.01112
12.500,0.01124
12.670,0.01160
12.830,0.01049
13.000,0.00994
13.170,0.01037
13.330,0.01110
13.500,0.01030
13.670,0.00901
13.830,0.00944
14.000,0.00854
14.170,0.00754
14.330,0.00827
14.500,0.00980
14.670,0.00827
14.830,0.00930
15.000,0.00980
15.170,0.01018
15.330,0.01197
15.500,0.01135
15.670,0.01160
15.830,0.01233
16.000,0.01214
16.170,0.01178
16.330,0.01152
16.500,0.01086
16.670,0.01152
16.830,0.01171
17.000,0.01103
17.170,0.01066
17.330,0.01152
17.500,0.01164
17.670,0.01127
17.830,0.01183
18.000,0.01109
18.170,0.01041
18.330,0.01152
18.500,0.01109
18.670,0.01054
18.830,0.01058
19.000,0.01088
19.170,0.01095
19.330,0.01145
19.500,0.01083
19.670,0.01034
19.830,0.01145
20.000,0.01131
20.170,0.01057
20.330,0.01051
20.500,0.01156
20.670,0.01236
20.830,0.00976
21.000,0.01166
21.170,0.01125
21.330,0.01071
21.500,0.01100
21.670,0.01131
21.830,0.01131
22.000,0.01094
22.170,0.00835
22.330,0.00853
22.500,0.00976
22.670,0.00750
22.830,0.00865
23.000,0.00740
23.170,0.00738
23.330,0.01154
23.500,0.01060
23.670,0.01170
23.830,0.00998
24.000,0.01054
24.170,0.01169
24.330,0.01212
24.500,0.01218
24.670,0.01193
24.830,0.01045
25.000,0.01240
25.170,0.01086
25.330,0.01012
25.500,0.01095
25.670,0.01073
25.830,0.01026
26.000,0.01004
26.170,0.00879
26.330,0.01365
26.500,0.01540
26.670,0.01404
26.830,0.01503
27.000,0.01564
27.170,0.01540
27.330,0.01477
27.500,0.01393
27.670,0.01448
27.830,0.01417
28.000,0.01460
28.170,0.01337
28.330,0.01254
28.500,0.01211
28.670,0.01107
28.830,0.01132
29.170,0.01347
29.330,0.01285
29.500,0.01305
29.670,0.01150
29.830,0.01169
30.000,0.01112
30.170,0.01040
30.330,0.01058
30.500,0.01044
30.670,0.01112
30.830,0.01124
31.000,0.01160
31.170,0.01049
31.330,0.00994
31.500,0.01037
31.670,0.01110
31.830,0.01030
32.000,0.00901
32.170,0.00944
32.330,0.00854
32.500,0.00754
32.670,0.00827
32.830,0.00980
33.000,0.00827
33.170,0.00930
33.330,0.00980
33.500,0.01018
33.670,0.01197
33.830,0.01135
34.000,0.01160
34.170,0.01233
34.330,0.01214
34.500,0.01178
34.670,0.01152
34.830,0.01086
35.000,0.01152
35.170,0.01171
35.330,0.01103
35.500,0.01066
35.670,0.01152
35.830,0.01164
36.000,0.01127
36.170,0.01183
36.330,0.01109
36.500,0.01041
36.670,0.01152
36.830,0.01109
37.000,0.01054
37.170,0.01058
37.330,0.01088
37.500,0.01095
37.670,0.01145
37.830,0.01083
38.000,0.01034
38.170,0.01145
38.330,0.01131
38.500,0.01057
38.670,0.01051
38.830,0.01156
0.830,0.00087
1.000,0.00010
1.330,0.00080
1.500,0.00106
1.670,0.00157
1.830,0.00125
2.000,0.00330
2.170,0.00408
2.330,0.00176
2.500,0.00330
2.670,0.00279
2.830,0.00433
3.000,0.00736
3.170,0.00659
3.330,0.00865
3.500,0.00524
3.670,0.00376
3.830,0.00504
4.000,0.00813
4.170,0.00453
4.330,0.00633
4.500,0.00582
4.670,0.00195
4.830,0.00607
5.000,0.00427
5.170,0.00298
5.330,0.00453
5.500,0.00576
5.670,0.00022
5.830,0.00298
6.000,0.00447
6.170,0.00200
6.330,0.00189
6.500,0.00200
6.670,0.00195
6.830,0.01122
7.000,0.01529
7.170,0.01272
7.330,0.00942
7.500,0.00659
7.670,0.00865
7.830,0.00684
8.000,0.00833
8.170,0.00576
8.330,0.00627
8.500,0.00627
8.670,0.00447
8.830,0.00673
9.000,0.00266
9.170,0.00382
9.330,0.00395
9.500,0.00627
9.670,0.00704
9.830,0.00318
10.000,0.00595
10.170,0.00601
10.330,0.00679
10.500,0.00647
10.670,0.00802
10.830,0.00679
11.000,0.01349
11.170,0.01215
11.330,0.01576
11.500,0.01267
11.670,0.01422
11.830,0.01246
12.000,0.01297
12.170,0.01447
12.330,0.01684
12.500,0.01014
12.670,0.01241
12.830,0.01447
13.000,0.01426
13.170,0.01370
13.330,0.01400
13.500,0.01318
13.670,0.01344
13.830,0.00787
14.000,0.00962
14.170,0.00802
14.330,0.00936
14.500,0.01117
14.670,0.00988
14.830,0.00673
15.000,0.00905
15.170,0.00962
15.330,0.00988
15.500,0.00885
15.670,0.01091
15.830,0.00344
16.000,0.00305
16.170,0.00556
16.330,0.00679
16.500,0.00498
16.670,0.00344
16.830,0.00266
17.000,0.00298
17.330,0.00395
17.500,0.00189
17.670,0.00292
17.830,0.00034
18.000,0.00195
18.170,0.00137
18.330,0.00215
18.500,0.00447
18.670,0.00273
18.830,0.00285
19.000,0.00382
19.170,0.00369
19.330,0.00344
19.500,0.00421
19.670,0.00440
19.830,0.00704
20.000,0.00215
20.170,0.00195
20.500,0.00736
20.670,0.00504
20.830,0.00479
21.000,0.00633
21.170,0.00472
21.330,0.00601
21.500,0.00240
21.670,0.00318
21.830,0.00298
22.000,0.00472
22.170,0.00524
22.330,0.00369
22.500,0.00086
22.670,0.00240
22.830,0.00137
23.000,0.00266
23.170,0.00369
23.330,0.00433
23.500,0.00376
23.670,0.00344
23.830,0.00369
24.000,0.00498
24.170,0.00472
24.330,0.00292
24.500,0.00318
32.000,0.00756
32.170,0.00504
32.330,0.00601
32.500,0.00576
32.670,0.00544
32.830,0.00704
33.000,0.00595
33.170,0.00704
33.330,0.00292
33.500,0.00189
33.670,0.00576
33.830,0.00570
34.000,0.00363
34.170,0.00570
34.330,0.00466
34.500,0.00518
34.670,0.00854
34.830,0.00395
35.000,0.00518
35.170,0.00931
35.330,0.00621
35.500,0.00595
35.670,0.00415
35.830,0.00802
36.000,0.00518
36.170,0.00415
36.330,0.00570
36.500,0.00828
36.670,0.00337
36.830,0.00750
37.000,0.00563
37.170,0.00744
37.330,0.00570
37.500,0.00673
37.670,0.00595
37.830,0.00544
38.000,0.00595
38.170,0.00724
38.330,0.00415
38.500,0.00595
38.83,0.00627
39,0.00647
39.17,0.00977
39.33,0.00756
39.5,0.00859
39.67,0.00266
39.83,0.00492
40,0.00854
40.17,0.00621
40.33,0.00395
40.5,0.00601
40.67,0.00421
40.83,0.00627
41,0.00601
41.17,0.00730
41.33,0.00905
41.5,0.00544
41.67,0.00673
41.83,0.00653
42,0.00318
42.17,0.00885
42.33,0.00570
42.5,0.00627
42.67,0.00756
42.83,0.00704
43,0.00530
43.17,0.00550
43.33,0.00318
43.5,0.00472
43.67,0.00730
43.83,0.00421
44,0.00601
44.17,0.00524
44.33,0.00704
44.5,0.00350
44.67,0.00240
44.83,0.00440
45,0.00266
45.17,0.00472
45.33,0.00318
45.67,0.00653
45.83,0.00170
46.17,0.00240
46.33,0.00266
46.5,0.00285
46.67,0.00215
46.83,0.00111
47,0.00337
47.17,0.00337
47.33,0.00724
47.5,0.00524
47.67,0.00550
47.83,0.00027
48,0.00363
48.17,0.00311
48.33,0.00415
48.5,0.00215
0.500,0.00204
0.670,0.01389
0.830,0.01889
1.000,0.03521
1.170,0.03917
1.330,0.05091
1.500,0.05221
1.670,0.05750
1.830,0.06359
2.000,0.07152
2.170,0.07140
2.330,0.07754
2.500,0.08093
2.670,0.08683
2.830,0.09180
3.000,0.09258
3.170,0.10147
3.330,0.10584
3.500,0.10793
3.670,0.11913
3.830,0.11961
4.000,0.12271
4.170,0.12455
4.330,0.13020
4.500,0.12963
4.670,0.13222
4.830,0.13350
5.000,0.13838
5.170,0.13600
5.330,0.14500
5.500,0.14400
5.670,0.14200
5.830,0.14400
6.000,0.14700
6.170,0.14900
6.330,0.15100
6.500,0.15400
6.670,0.15400
6.830,0.15600
7.000,0.15800
7.170,0.15960
7.330,0.15880
7.500,0.15510
7.670,0.15610
7.830,0.15600
8.000,0.15910
8.170,0.15670
8.330,0.15800
8.500,0.15200
8.670,0.16100
8.830,0.15000
9.000,0.14820
9.170,0.15300
9.330,0.15500
9.500,0.15500
9.670,0.15320
9.830,0.15560
10.000,0.15300
10.170,0.15240
10.330,0.15610
10.500,0.14950
10.670,0.14870
10.830,0.15030
11.000,0.15190
11.170,0.14470
11.330,0.14500
11.500,0.15510
11.670,0.15530
11.830,0.16250
12.000,0.16220
12.170,0.16550
12.330,0.16230
12.500,0.16600
12.670,0.16280
12.830,0.16310
13.000,0.16330
13.170,0.16600
13.330,0.16700
13.500,0.16800
13.670,0.16700
13.830,0.16900
14.000,0.16840
14.170,0.16490
14.330,0.16600
14.500,0.16700
14.670,0.16700
14.830,0.16800
15.000,0.16900
15.170,0.17000
15.330,0.17100
15.500,0.17100
15.670,0.16500
15.830,0.17000
16.000,0.17500
16.170,0.17200
16.330,0.17400
16.500,0.17300
16.670,0.17400
16.830,0.17990
17.000,0.17960
17.170,0.17500
17.330,0.18600
17.500,0.18400
17.670,0.18860
17.830,0.19100
18.000,0.18700
18.170,0.19400
18.330,0.19800
18.500,0.19880
18.670,0.20190
18.830,0.20500
19.000,0.20700
19.170,0.21000
19.330,0.21200
19.500,0.22400
19.670,0.22540
19.830,0.23100
20.000,0.23700
20.170,0.24070
20.330,0.24300
20.500,0.24300
20.670,0.24600
20.830,0.24900
21.000,0.25170
21.170,0.25500
21.330,0.25600
21.500,0.26200
21.670,0.26200
21.830,0.26800
22.000,0.27400
22.170,0.28100
22.330,0.28300
22.500,0.29040
22.670,0.29400
22.830,0.30000
23.000,0.30600
23.170,0.31100
23.330,0.31700
23.500,0.32200
23.670,0.33000
23.830,0.32900
24.000,0.33600
24.170,0.34200
24.330,0.34800
24.500,0.35200
24.670,0.35800
24.830,0.36900
25.000,0.35800
25.170,0.36400
25.330,0.37100
25.500,0.37900
25.670,0.38400
25.830,0.38900
26.000,0.39600
26.170,0.40970
26.330,0.41600
26.500,0.42270
26.670,0.42600
26.830,0.43600
27.000,0.44200
27.170,0.44600
27.330,0.45400
27.500,0.46200
27.670,0.46900
27.830,0.47300
28.000,0.47700
28.170,0.48400
28.330,0.49020
28.500,0.49800
28.670,0.50750
28.830,0.51400
29.000,0.52300
29.170,0.52900
29.330,0.53800
29.500,0.54360
29.670,0.54900
29.830,0.55900
30.000,0.56500
30.170,0.57900
30.330,0.58500
30.500,0.59600
30.670,0.60100
30.830,0.61000
31.000,0.61200
31.170,0.62200
31.330,0.62500
31.500,0.63100
31.670,0.63900
31.830,0.64600
32.000,0.65200
32.170,0.66000
32.330,0.66400
32.500,0.68100
32.670,0.69000
32.830,0.69400
33.000,0.69800
33.170,0.70600
33.330,0.71200
33.500,0.71900
33.670,0.72300
33.830,0.72900
34.000,0.73400
34.170,0.73800
34.330,0.74200
34.500,0.75100
34.670,0.75400
34.830,0.76100
35.000,0.76300
35.170,0.76700
35.330,0.77200
35.500,0.78400
35.670,0.78800
35.830,0.79300
36.000,0.80400
36.170,0.80700
36.330,0.81400
36.500,0.81600
0.500,0.01660
0.670,0.01610
0.830,0.01540
1.000,0.02310
1.170,0.02330
1.330,0.02833
1.500,0.02890
1.670,0.03680
1.830,0.03610
2.000,0.03650
2.170,0.04300
2.330,0.04320
2.500,0.04290
2.670,0.04190
2.830,0.04930
3.000,0.04050
3.170,0.04170
3.330,0.04640
3.500,0.04780
3.670,0.05210
3.830,0.05440
4.000,0.05870
4.170,0.05440
4.330,0.05590
4.500,0.05600
4.670,0.05700
4.830,0.06560
5.000,0.06700
5.170,0.07400
5.330,0.07100
5.500,0.06900
5.670,0.07070
5.830,0.07220
6.000,0.06720
6.170,0.07009
6.330,0.06910
6.500,0.06770
6.670,0.06880
6.830,0.06980
7.000,0.06790
7.170,0.07060
7.330,0.07250
7.500,0.07210
7.670,0.07280
7.830,0.07360
8.000,0.07300
8.170,0.07400
8.330,0.07380
8.500,0.07500
8.670,0.07060
8.830,0.07060
9.000,0.06980
9.170,0.05920
9.330,0.06770
9.500,0.07510
9.670,0.07620
9.830,0.07790
10.000,0.07390
10.170,0.07400
10.330,0.07130
10.500,0.07200
10.670,0.07100
10.830,0.07200
11.000,0.07300
11.170,0.07280
11.330,0.07500
11.500,0.07600
11.670,0.07600
11.830,0.09700
12.000,0.09760
12.170,0.09770
12.330,0.08780
12.500,0.09790
12.670,0.09790
12.830,0.08780
13.000,0.09807
13.170,0.09811
13.330,0.09849
13.500,0.09886
13.670,0.09690
13.830,0.08990
14.000,0.09200
14.170,0.09560
14.330,0.09330
14.500,0.10002
14.670,0.10077
14.830,0.10027
15.000,0.10190
15.170,0.09940
15.330,0.09960
15.500,0.10140
15.670,0.09890
15.830,0.10260
16.000,0.10320
16.170,0.10180
16.330,0.10460
16.500,0.10150
16.670,0.10370
16.830,0.11390
17.000,0.11465
17.170,0.11377
17.330,0.11614
17.500,0.12012
17.670,0.12126
17.830,0.12220
18.000,0.12615
18.170,0.12012
18.330,0.12838
18.500,0.14110
18.670,0.14334
18.830,0.14577
19.000,0.14243
19.170,0.14575
19.330,0.14985
19.500,0.15407
19.670,0.15942
19.830,0.16293
20.000,0.16698
20.170,0.17877
20.330,0.17964
20.500,0.17617
20.670,0.17871
20.830,0.17607
21.000,0.18569
21.170,0.18017
21.330,0.18109
21.500,0.18151
21.670,0.18297
21.830,0.18357
22.000,0.18321
22.170,0.18123
22.330,0.18212
22.500,0.18370
22.670,0.18515
22.830,0.18758
23.000,0.19183
23.170,0.19281
23.330,0.19670
23.500,0.19824
23.670,0.20436
23.830,0.20750
24.000,0.21187
24.170,0.21667
24.330,0.21794
24.500,0.23284
24.670,0.23641
24.830,0.23563
25.000,0.23896
25.170,0.23981
25.330,0.24225
25.500,0.24578
25.670,0.25876
25.830,0.26604
26.000,0.26754
26.170,0.28190
26.330,0.29316
26.500,0.30643
26.670,0.31567
26.830,0.32032
27.000,0.32340
27.170,0.32715
27.330,0.32942
27.500,0.33098
27.670,0.34135
27.830,0.34482
28.000,0.34706
28.170,0.35060
28.330,0.35278
28.500,0.35474
28.670,0.35523
28.830,0.36810
29.000,0.37834
29.170,0.38047
29.330,0.38200
29.500,0.39976
29.670,0.39031
29.830,0.39090
30.000,0.39220
30.170,0.40370
30.330,0.41280
30.500,0.42170
30.670,0.43180
30.830,0.44100
31.000,0.46200
31.170,0.48200
31.330,0.49000
31.500,0.49660
31.670,0.50230
31.830,0.51000
32.000,0.51960
32.170,0.52400
32.330,0.53490
32.500,0.54420
32.670,0.55140
32.830,0.55840
33.000,0.56700
33.170,0.58123
33.330,0.59020
33.500,0.59670
33.670,0.60380
33.830,0.61270
34.000,0.61270
34.170,0.62240
34.330,0.62760
34.500,0.64530
34.670,0.65180
34.830,0.66610
35.000,0.67540
35.170,0.68240
35.330,0.69370
35.500,0.70180
35.670,0.70990
35.830,0.70180
36.000,0.70810
36.170,0.71250
36.330,0.71260
36.500,0.71280
0.330,0.00037
0.500,0.01250
0.670,0.01228
0.830,0.01250
1.000,0.01297
1.170,0.01056
1.330,0.01326
1.500,0.01724
1.670,0.01363
1.830,0.01373
2.000,0.01341
2.170,0.03404
2.330,0.03497
2.500,0.03275
2.670,0.03720
2.830,0.03470
3.000,0.04060
3.170,0.03644
3.330,0.02960
3.500,0.01730
3.670,0.02320
3.830,0.03480
4.000,0.04020
4.170,0.04390
4.330,0.04169
4.500,0.04415
4.670,0.04341
4.830,0.04274
5.000,0.04274
5.170,0.04052
5.330,0.04398
5.500,0.04694
5.670,0.04275
5.830,0.04738
6.000,0.04603
6.170,0.04250
6.330,0.04108
6.500,0.04002
6.670,0.04255
6.830,0.04535
7.000,0.04605
7.170,0.04429
7.330,0.05114
7.500,0.05262
7.670,0.05090
7.830,0.05070
8.000,0.05220
8.170,0.05120
8.330,0.05150
8.500,0.05330
8.670,0.05170
8.830,0.05120
9.000,0.05270
9.170,0.05202
9.330,0.04910
9.500,0.04730
9.670,0.05180
9.830,0.05205
10.000,0.05170
10.170,0.05260
10.330,0.05450
10.500,0.05280
10.670,0.05602
10.830,0.05540
11.000,0.05630
11.170,0.05480
11.330,0.05600
11.500,0.05580
11.670,0.06590
11.830,0.07670
12.000,0.07890
12.170,0.07170
12.330,0.07940
12.500,0.07040
12.670,0.07340
12.830,0.07320
13.000,0.07350
13.170,0.07520
13.330,0.07620
13.500,0.07590
13.670,0.07840
13.830,0.07820
14.000,0.07550
14.170,0.07820
14.330,0.07847
14.500,0.07840
14.670,0.07851
14.830,0.06856
15.000,0.06851
15.170,0.06885
15.330,0.06883
15.500,0.06850
15.670,0.06160
15.830,0.06010
16.000,0.07100
16.170,0.07921
16.330,0.07920
16.500,0.07940
16.670,0.07948
16.830,0.07970
17.000,0.06560
17.170,0.06690
17.330,0.06810
17.500,0.06982
17.670,0.07050
17.830,0.07886
18.000,0.07910
18.170,0.07891
18.330,0.07491
18.500,0.07691
18.670,0.07591
18.830,0.07491
19.000,0.07940
19.170,0.07550
19.330,0.07950
19.500,0.08750
19.670,0.07830
19.830,0.08760
20.000,0.07830
20.170,0.08570
20.330,0.08450
20.500,0.08650
20.670,0.09300
20.830,0.08800
21.000,0.09310
21.170,0.08631
21.330,0.07800
21.500,0.09800
21.670,0.09461
21.830,0.09830
22.000,0.09210
22.170,0.10430
22.330,0.10272
22.500,0.10100
22.670,0.11276
22.830,0.11125
23.000,0.11580
23.170,0.11810
23.330,0.12700
23.500,0.12860
23.670,0.12410
23.830,0.12570
24.000,0.12620
24.170,0.13570
24.330,0.15410
24.500,0.13150
24.670,0.13850
24.830,0.14950
25.000,0.14380
25.170,0.14330
25.330,0.15610
25.500,0.15040
25.670,0.15160
25.830,0.16490
26.000,0.16901
26.170,0.16390
26.330,0.16540
26.500,0.17030
26.670,0.17140
26.830,0.17610
27.000,0.18620
27.170,0.18795
27.330,0.18960
27.500,0.19150
27.670,0.19320
27.830,0.20930
28.000,0.20180
28.170,0.21590
28.330,0.21800
28.500,0.22040
28.670,0.22340
28.830,0.23490
29.000,0.23110
29.170,0.23130
29.330,0.24530
29.500,0.24390
29.670,0.24810
29.830,0.24770
30.000,0.25610
30.170,0.26190
30.330,0.25640
30.500,0.26130
30.670,0.26540
30.830,0.26810
31.000,0.27300
31.170,0.28350
31.330,0.27691
31.500,0.28510
31.670,0.28950
31.830,0.29650
32.000,0.29540
32.170,0.29720
32.330,0.30160
32.500,0.30680
32.670,0.30870
32.830,0.30900
33.000,0.31200
33.170,0.31660
33.330,0.30430
33.500,0.32400
33.670,0.33240
33.830,0.34100
34.000,0.34660
34.170,0.34960
34.330,0.35380
34.500,0.35940
34.670,0.36420
34.830,0.36950
35.000,0.37560
35.170,0.37560
35.330,0.38070
35.500,0.38340
35.670,0.38920
35.830,0.39260
36.000,0.39500
36.170,0.39900
36.330,0.40100
36.500,0.40600
36.670,0.41320
36.830,0.41310
37.000,0.41950
37.170,0.42580
37.330,0.43330
37.500,0.43317
37.670,0.44060
37.830,0.44690
38.000,0.45150
38.170,0.45730
38.330,0.46110
38.500,0.46410
38.670,0.46960
38.830,0.47050
39.000,0.47974
39.170,0.47954
39.330,0.48360
39.500,0.48717
39.670,0.49420
39.830,0.49830
40.000,0.50080
0.830,0.00970
1.000,0.00958
1.170,0.01086
1.330,0.01040
1.500,0.01016
1.670,0.01160
1.830,0.01001
2.000,0.01032
2.170,0.01313
2.330,0.01225
2.500,0.01275
2.670,0.01304
2.830,0.01320
3.000,0.01366
3.170,0.01202
3.330,0.01210
3.500,0.01207
3.670,0.01269
3.830,0.01239
4.000,0.01642
4.170,0.01824
4.330,0.02670
4.670,0.02260
4.830,0.02070
5.000,0.02550
5.170,0.02750
5.330,0.02870
5.500,0.02920
5.670,0.03199
5.830,0.03470
6.000,0.03420
6.170,0.03030
6.330,0.03030
6.500,0.03850
6.670,0.03870
6.830,0.03410
7.000,0.03540
7.170,0.03760
7.330,0.04080
7.500,0.04900
7.670,0.04990
7.830,0.04110
8.000,0.04030
8.170,0.04020
8.330,0.04840
8.500,0.03630
8.670,0.04500
8.830,0.04320
9.000,0.04660
9.170,0.04450
9.330,0.04180
9.500,0.04030
9.670,0.04170
9.830,0.04080
10.000,0.04200
10.170,0.04150
10.330,0.04506
10.500,0.04160
10.670,0.04153
10.830,0.04155
11.000,0.04254
11.170,0.04253
11.330,0.04257
11.500,0.04252
11.670,0.04227
11.830,0.04541
12.000,0.04540
12.170,0.05560
12.330,0.05360
12.500,0.05440
12.670,0.05170
12.830,0.05120
13.000,0.05400
13.170,0.05130
13.330,0.04750
13.500,0.04900
13.670,0.04680
13.830,0.04910
14.000,0.04590
14.170,0.05000
14.330,0.04670
14.500,0.04810
14.670,0.04670
14.830,0.04530
15.000,0.04390
15.170,0.04500
15.330,0.04530
15.500,0.04110
15.670,0.04320
15.830,0.04333
16.000,0.04380
16.170,0.04850
16.330,0.04430
16.500,0.04480
16.670,0.04390
16.830,0.04760
17.000,0.04840
17.170,0.04630
17.330,0.04720
17.500,0.04600
17.670,0.04610
17.830,0.04280
18.000,0.04500
18.170,0.04440
18.330,0.04600
18.500,0.04620
18.670,0.04560
18.830,0.04556
19.000,0.05400
19.170,0.05300
19.330,0.05250
19.500,0.05300
19.670,0.05250
19.830,0.05390
20.000,0.05030
20.170,0.05110
20.330,0.04790
20.500,0.04640
20.670,0.04980
20.830,0.04680
21.000,0.04910
21.170,0.04740
21.330,0.04990
21.500,0.05220
21.670,0.05170
21.830,0.05170
22.000,0.05630
22.170,0.05340
22.330,0.05270
22.500,0.05830
22.670,0.05640
22.830,0.05770
23.000,0.05670
23.170,0.05730
23.330,0.05100
23.500,0.05590
23.670,0.05800
23.830,0.05340
24.000,0.05370
24.170,0.05480
24.330,0.05760
24.500,0.05570
24.670,0.05800
24.830,0.05830
25.000,0.05970
25.170,0.06280
25.330,0.06350
25.500,0.06460
25.670,0.06680
25.830,0.06810
26.000,0.06790
26.170,0.06790
26.330,0.06940
26.500,0.07050
26.670,0.06270
26.830,0.06590
27.000,0.07390
27.170,0.07130
27.330,0.07250
27.500,0.07550
27.670,0.07720
27.830,0.07800
28.000,0.08100
28.170,0.08300
28.330,0.08700
28.500,0.08700
28.670,0.08800
28.830,0.09010
29.000,0.09200
29.170,0.09300
29.330,0.09500
29.500,0.09600
29.670,0.09300
29.830,0.09490
30.000,0.09760
30.170,0.09900
30.330,0.09870
30.500,0.10110
30.670,0.10800
30.830,0.10940
31.000,0.11210
31.170,0.11030
31.330,0.11300
31.500,0.11550
31.670,0.11800
31.830,0.12200
32.000,0.11700
32.170,0.11850
32.330,0.12000
32.500,0.12300
32.670,0.12600
32.830,0.12510
33.000,0.13070
33.170,0.13400
33.330,0.13700
33.500,0.13900
33.670,0.14200
33.830,0.14400
34.000,0.14900
34.170,0.15100
34.330,0.15400
34.500,0.15610
34.670,0.15970
34.830,0.16310
35.000,0.16600
35.170,0.17100
35.330,0.17400
35.500,0.17700
35.670,0.18100
35.830,0.18600
36.000,0.19000
36.170,0.19300
36.330,0.19760
36.500,0.20200
36.670,0.20600
36.830,0.20900
37.000,0.21300
37.170,0.21700
37.330,0.22300
37.500,0.22700
37.670,0.22900
37.830,0.23400
38.000,0.23900
38.170,0.24550
38.330,0.24800
38.500,0.25200
38.670,0.25500
38.830,0.25900
39.000,0.26300
39.170,0.26900
39.330,0.27220
39.500,0.27800
39.670,0.28400
39.830,0.28440
40.000,0.28700
0.000,0.00128
0.170,0.00293
0.330,0.00200
0.830,0.00430
1.170,0.00191
1.330,0.00240
1.500,0.00130
1.670,0.00600
1.830,0.00146
2.000,0.00144
2.170,0.01100
2.330,0.00800
2.500,0.00920
2.670,0.01296
2.830,0.01220
3.000,0.01360
3.170,0.00762
3.330,0.00910
3.500,0.01120
3.670,0.01370
3.830,0.01360
4.000,0.01620
4.170,0.01660
4.330,0.02332
4.500,0.02370
4.670,0.02640
4.830,0.02270
5.000,0.02080
5.170,0.02505
5.330,0.02457
5.500,0.02480
5.670,0.02480
5.830,0.02693
6.000,0.02374
6.170,0.02561
6.330,0.02610
6.500,0.02620
6.670,0.02460
6.830,0.02033
7.000,0.01770
7.170,0.02030
7.330,0.02340
7.500,0.02370
7.670,0.01791
7.830,0.02158
8.000,0.02150
8.170,0.01780
8.330,0.01960
8.500,0.01940
8.670,0.01780
8.830,0.01860
9.000,0.02005
9.170,0.01943
9.330,0.01750
9.500,0.01853
9.670,0.01810
9.830,0.01920
10.000,0.01820
10.170,0.01820
10.330,0.01780
10.500,0.01791
10.670,0.02200
10.830,0.02200
11.000,0.02070
11.170,0.02590
11.330,0.02260
11.500,0.01870
11.670,0.01650
11.830,0.02050
12.000,0.01960
12.170,0.01780
12.330,0.01600
12.500,0.01895
12.670,0.01650
12.830,0.01735
13.000,0.01820
13.170,0.01810
13.330,0.01910
13.500,0.01990
13.670,0.01720
13.830,0.01722
14.000,0.01800
14.170,0.01700
14.330,0.01550
14.500,0.01570
14.670,0.01560
14.830,0.01530
15.000,0.01570
15.170,0.01770
15.330,0.01770
15.500,0.01740
15.670,0.01600
15.830,0.01853
16.000,0.01750
16.170,0.01890
16.330,0.01870
16.500,0.01660
16.670,0.01750
16.830,0.01970
17.000,0.01870
17.170,0.01874
17.330,0.01710
17.500,0.01830
17.670,0.01850
17.830,0.01760
18.000,0.01870
18.170,0.01743
18.330,0.01480
18.500,0.01624
18.670,0.01530
18.830,0.01500
19.000,0.01443
19.170,0.01370
19.330,0.01354
19.500,0.01099
19.670,0.01203
19.830,0.01375
20.000,0.01271
20.170,0.01150
20.330,0.01271
20.500,0.01063
20.670,0.01250
20.830,0.01125
21.000,0.01084
21.170,0.01006
21.330,0.01300
21.500,0.01440
21.670,0.01770
21.830,0.01770
22.000,0.01900
22.170,0.01970
22.330,0.02090
22.500,0.02200
22.670,0.02120
22.830,0.02353
23.000,0.02330
23.170,0.02304
23.330,0.02345
23.500,0.02460
23.670,0.02450
23.830,0.02050
24.000,0.02353
24.170,0.02311
24.330,0.02325
24.500,0.02280
24.670,0.02460
24.830,0.02520
25.000,0.02600
25.170,0.02650
25.330,0.02670
25.500,0.02850
25.670,0.02755
25.830,0.02820
26.000,0.02670
26.170,0.02852
26.330,0.02770
26.500,0.02960
26.670,0.02956
26.830,0.02956
27.000,0.03094
27.170,0.03130
27.330,0.03193
27.500,0.03110
27.670,0.03172
27.830,0.03122
28.000,0.03422
28.170,0.03484
28.330,0.03290
28.500,0.03650
28.670,0.03550
28.830,0.03622
29.000,0.03530
29.170,0.03764
29.330,0.03922
29.500,0.04068
29.670,0.04118
29.830,0.04255
30.000,0.04380
30.170,0.04369
30.330,0.04810
30.500,0.05320
30.670,0.05661
30.830,0.06070
31.000,0.06371
31.170,0.06558
31.330,0.06663
31.500,0.07020
31.670,0.07226
31.830,0.07330
32.000,0.07580
32.170,0.07789
32.330,0.07950
32.500,0.07960
32.670,0.08713
32.830,0.09130
33.000,0.09470
33.170,0.10104
33.330,0.10010
33.500,0.10400
33.670,0.10813
33.830,0.11185
34.000,0.11730
34.170,0.12230
34.330,0.12420
34.500,0.12796
34.670,0.13150
34.830,0.13420
35.000,0.13770
35.170,0.13940
35.330,0.14360
35.500,0.14650
35.670,0.14860
35.830,0.15420
36.000,0.15790
36.170,0.16200
36.330,0.16480
36.500,0.16800
36.670,0.17090
36.830,0.17545
37.000,0.17840
37.170,0.18070
37.330,0.18630
37.500,0.19240
37.670,0.19250
37.830,0.19560
38.000,0.19750
38.170,0.20350
38.330,0.20570
38.500,0.20900
38.670,0.21040
38.830,0.21170
39.000,0.21520
39.170,0.21890
39.330,0.22170
39.500,0.22340
39.670,0.22360
39.830,0.22820
40.000,0.23270
0.500,0.00500
0.670,0.00990
0.830,0.00620
1.000,0.00580
1.170,0.00460
1.330,0.01210
1.500,0.01640
1.670,0.02010
1.830,0.02230
2.000,0.02560
2.170,0.02770
2.330,0.03040
2.500,0.03160
2.670,0.03170
2.830,0.03330
3.000,0.03400
3.170,0.03480
3.330,0.03640
3.500,0.03770
3.670,0.03950
3.830,0.04100
4.000,0.04230
4.170,0.04460
4.330,0.04510
4.500,0.04730
4.670,0.04820
4.830,0.05710
5.000,0.06080
5.170,0.07290
5.330,0.07920
5.500,0.08420
5.670,0.08800
5.830,0.09080
6.000,0.09290
6.170,0.09700
6.330,0.10170
6.500,0.10530
6.670,0.11100
6.830,0.11690
7.000,0.12360
7.170,0.13120
7.330,0.14040
7.500,0.14920
7.670,0.15900
7.830,0.16900
8.000,0.18060
8.170,0.19190
8.330,0.20620
8.500,0.22070
8.670,0.23630
8.830,0.25250
9.000,0.26790
9.170,0.28410
9.330,0.30140
9.500,0.31910
9.670,0.34650
9.830,0.36190
10.000,0.37950
10.200,0.39380
10.300,0.40660
10.500,0.42190
10.700,0.43620
10.800,0.45100
11.000,0.46440
11.200,0.47990
11.300,0.49150
11.500,0.50470
11.700,0.51310
11.800,0.52990
12.000,0.54250
12.200,0.55280
12.300,0.56130
12.500,0.57030
12.700,0.57680
12.800,0.59050
13.000,0.59710
0.670,0.00951
0.830,0.00745
1.000,0.00923
1.170,0.01249
1.330,0.01163
1.500,0.00817
1.670,0.02710
1.830,0.02543
2.000,0.02439
2.170,0.03073
2.330,0.03364
2.500,0.03456
2.670,0.03404
2.830,0.03110
3.000,0.02458
3.170,0.01774
3.330,0.03814
3.500,0.02990
3.670,0.02690
3.830,0.02569
4.000,0.02406
4.170,0.02195
4.330,0.02827
4.500,0.03044
4.670,0.02664
4.830,0.02630
5.000,0.04048
5.170,0.04014
5.330,0.03989
5.500,0.03778
5.670,0.03761
5.830,0.03710
6.000,0.03802
6.170,0.03754
6.330,0.03744
6.500,0.03660
6.670,0.03888
6.830,0.03786
7.000,0.03904
7.170,0.03930
7.330,0.03929
7.500,0.03769
7.670,0.03619
7.830,0.03626
8.000,0.03525
8.170,0.03415
8.330,0.03373
8.500,0.03499
8.670,0.03440
8.830,0.03703
9.000,0.03761
9.170,0.03745
9.330,0.03562
9.500,0.03686
9.670,0.03660
9.830,0.03552
10.000,0.03558
10.200,0.03558
10.300,0.03508
10.500,0.03592
10.700,0.03542
10.800,0.03609
11.000,0.03558
11.200,0.03668
11.300,0.03457
11.500,0.03542
11.700,0.03609
11.800,0.03702
12.000,0.03609
12.200,0.03451
12.300,0.03508
12.500,0.03484
12.700,0.03518
12.800,0.03501
13.000,0.03467
13.200,0.03349
13.300,0.03518
13.500,0.03511
13.700,0.03259
13.800,0.03526
14.000,0.03383
14.200,0.03326
14.300,0.03309
14.500,0.03451
14.700,0.03569
14.800,0.03400
15.000,0.03543
15.200,0.03442
15.300,0.02903
15.500,0.03609
15.700,0.03299
15.800,0.03139
16.000,0.03153
16.200,0.03282
16.300,0.03947
16.500,0.03913
16.700,0.03963
16.800,0.03788
17.000,0.03771
17.200,0.03929
17.300,0.03745
17.500,0.03830
17.700,0.03886
17.800,0.03777
18.000,0.03929
18.200,0.03751
18.300,0.03727
18.500,0.02526
18.700,0.02343
18.800,0.02605
19.000,0.02712
19.200,0.02538
19.300,0.03685
19.500,0.03297
19.700,0.03827
19.800,0.03398
20.000,0.03364
0.330,0.00710
0.500,0.01320
0.670,0.01940
0.830,0.02240
1.000,0.02670
1.170,0.03090
1.330,0.03290
1.500,0.03550
1.670,0.03750
1.830,0.03890
2.000,0.04220
2.170,0.04340
2.330,0.04600
2.500,0.04760
2.670,0.05020
2.830,0.05290
3.000,0.05410
3.170,0.05680
3.330,0.05880
3.500,0.06200
3.670,0.06440
3.830,0.06750
4.000,0.07000
4.170,0.07210
4.330,0.07670
4.500,0.07480
4.670,0.07670
4.830,0.07990
5.000,0.08390
5.170,0.09560
5.330,0.10630
5.500,0.11470
5.670,0.12300
5.830,0.13160
6.000,0.14010
6.170,0.15030
6.330,0.16160
6.500,0.17470
6.670,0.18850
6.830,0.20040
7.000,0.21540
7.170,0.23160
7.330,0.24710
7.500,0.26350
7.670,0.28030
7.830,0.29770
8.000,0.31240
8.170,0.32790
8.330,0.34490
8.500,0.36160
8.670,0.37580
8.830,0.39160
9.000,0.40790
9.170,0.42400
9.330,0.43820
9.500,0.45440
9.670,0.47140
9.830,0.48790
10.000,0.50240
10.200,0.51390
10.300,0.52740
10.500,0.54470
10.700,0.55560
10.800,0.56630
11.000,0.57850
11.200,0.58570
1.000,0.00154
1.170,0.00601
1.330,0.00510
1.500,0.00743
1.670,0.00872
1.830,0.01319
2.000,0.01665
2.170,0.01718
2.330,0.01889
2.500,0.01898
2.670,0.01784
2.830,0.01767
3.000,0.02178
3.170,0.02530
3.330,0.03207
3.500,0.02928
3.670,0.02989
3.830,0.02496
4.000,0.02766
4.170,0.02556
4.330,0.02279
4.500,0.02331
4.670,0.02522
4.830,0.02731
5.000,0.02514
5.170,0.02218
5.330,0.02027
5.500,0.01871
5.670,0.01836
5.830,0.01931
6.000,0.01514
6.170,0.01601
6.330,0.01627
6.500,0.01480
6.670,0.01410
6.830,0.01228
7.000,0.01305
7.170,0.01436
7.330,0.01419
7.500,0.01220
7.670,0.01236
7.830,0.01384
8.000,0.01367
8.170,0.01479
8.330,0.01358
8.500,0.01366
8.670,0.01296
8.830,0.01254
9.000,0.01531
9.170,0.01367
9.330,0.01349
9.500,0.01609
9.670,0.01783
9.830,0.01452
10.000,0.01514
10.200,0.01486
10.300,0.01348
10.500,0.01434
10.700,0.01348
10.800,0.01435
11.000,0.01226
11.200,0.01470
11.300,0.01452
11.500,0.01565
11.700,0.01452
11.800,0.01520
12.000,0.01625
12.200,0.01285
12.300,0.01276
12.500,0.01356
12.700,0.01373
12.800,0.01565
13.000,0.01424
13.200,0.01399
13.300,0.01643
13.500,0.01382
13.700,0.01529
13.800,0.01443
14.000,0.01582
14.200,0.01443
14.300,0.01250
14.500,0.01208
14.700,0.01051
14.800,0.00988
15.000,0.00822
15.200,0.01582
15.300,0.01695
15.500,0.01635
15.700,0.01748
15.800,0.01539
16.000,0.01887
16.200,0.01635
16.300,0.01696
16.500,0.01713
16.700,0.01574
16.800,0.01548
17.000,0.01338
17.200,0.01356
17.300,0.01539
17.500,0.01712
17.700,0.01826
17.800,0.01270
18.000,0.01609
18.200,0.01992
18.300,0.01222
18.500,0.01244
18.700,0.01000
18.800,0.01645
19.000,0.01940
19.200,0.01748
19.300,0.01983
19.500,0.00481
19.700,0.01578
19.800,0.01924
20.000,0.01566
0.000,0.00670
1.170,0.00130
1.330,0.00530
1.500,0.00960
1.670,0.01110
1.830,0.01110
2.000,0.01080
2.170,0.01720
2.330,0.02510
2.500,0.02340
2.670,0.02800
2.830,0.02870
3.000,0.02980
3.170,0.03170
3.330,0.03460
3.500,0.03620
3.670,0.03720
3.830,0.04130
4.000,0.04040
4.170,0.04140
4.330,0.03940
4.500,0.04040
4.670,0.04130
4.830,0.04100
5.000,0.03840
5.170,0.03950
5.330,0.03740
5.500,0.03880
5.670,0.03840
5.830,0.04010
6.000,0.03890
6.170,0.03820
6.330,0.03780
6.500,0.03880
6.670,0.03760
6.830,0.03730
7.000,0.03790
7.170,0.03710
7.330,0.03660
7.500,0.03790
7.670,0.03720
7.830,0.03740
8.000,0.03660
8.170,0.03580
8.330,0.03480
8.500,0.03280
8.670,0.03300
8.830,0.03320
9.000,0.03250
9.170,0.03240
9.330,0.03070
9.500,0.03170
9.670,0.03270
9.830,0.03140
10.000,0.03190
10.200,0.03120
10.300,0.03100
10.500,0.03030
10.700,0.02900
10.800,0.03020
11.000,0.02970
11.200,0.03460
11.300,0.04110
11.500,0.04400
11.700,0.04560
11.800,0.04570
12.000,0.04590
12.200,0.04610
12.300,0.04570
12.500,0.04540
12.700,0.04460
12.800,0.04490
13.000,0.04400
13.200,0.04380
13.300,0.04310
13.500,0.04380
13.700,0.04270
13.800,0.04190
14.000,0.04180
14.200,0.04160
14.300,0.04140
14.500,0.04060
14.700,0.04040
14.800,0.04060
15.000,0.04080
15.200,0.03970
15.300,0.03940
15.500,0.03940
15.700,0.03920
15.800,0.04000
16.000,0.03830
16.200,0.03890
16.300,0.03850
16.500,0.03950
16.700,0.03780
16.800,0.03930
17.000,0.03770
17.200,0.03760
17.300,0.03750
17.500,0.03680
17.700,0.03660
17.800,0.03720
18.000,0.03680
18.200,0.03720
18.300,0.03690
18.500,0.03600
18.700,0.03600
18.800,0.03600
19.000,0.03520
19.200,0.03460
19.300,0.03600
19.500,0.03570
19.700,0.03640
19.800,0.03620
20.000,0.03600
20.200,0.03580
20.300,0.03650
20.500,0.03650
20.700,0.03670
20.800,0.03600
21.000,0.03620
21.200,0.03640
21.300,0.03670
21.500,0.03650
21.700,0.03580
21.800,0.03550
22.000,0.03640
22.200,0.03600
22.300,0.03590
22.500,0.03590
22.700,0.03670
22.800,0.03600
23.000,0.03540
23.200,0.03600
23.300,0.03490
23.500,0.03540
23.700,0.03400
23.800,0.03430
24.000,0.03410
24.200,0.03460
24.300,0.03480
24.500,0.03470
24.700,0.03330
24.800,0.03410
25.000,0.03410
25.200,0.03470
25.300,0.03480
25.500,0.03350
25.700,0.03320
25.800,0.03270
26.000,0.03200
26.200,0.03330
26.300,0.03350
26.500,0.03340
26.700,0.03290
26.800,0.03370
27.000,0.03330
27.200,0.03260
27.300,0.03370
27.500,0.03350
27.700,0.03410
27.800,0.03290
28.000,0.03440
28.200,0.03250
28.300,0.03320
28.500,0.03380
28.700,0.03310
28.800,0.03450
29.000,0.03340
29.200,0.03320
29.300,0.03300
29.500,0.03480
29.700,0.03300
29.800,0.03250
30.000,0.03280
30.200,0.03420
30.300,0.03350
30.500,0.03200
30.700,0.03240
30.800,0.03210
31.000,0.03190
31.200,0.03230
31.300,0.03300
31.500,0.03060
31.700,0.03140
31.800,0.03280
32.000,0.03180
32.200,0.03220
32.300,0.03030
32.500,0.03100
32.700,0.02980
32.800,0.02890
33.000,0.03030
33.200,0.02990
33.300,0.02920
33.500,0.02740
33.700,0.02780
33.800,0.02840
34.000,0.02850
34.200,0.02770
34.300,0.02790
34.500,0.03510
34.700,0.03800
34.800,0.03960
35.000,0.04130
35.200,0.03960
35.300,0.04080
35.500,0.04260
35.700,0.04110
35.800,0.04280
36.000,0.03980
36.200,0.03890
36.300,0.03880
36.500,0.03920
36.700,0.03900
36.800,0.03790
37.000,0.03600
37.200,0.03880
37.300,0.03820
37.500,0.03870
37.700,0.03900
37.800,0.03840
38.000,0.03850
38.200,0.03760
38.300,0.03670
38.500,0.03640
38.700,0.03820
38.800,0.03760
39.000,0.03730
39.200,0.03690
39.300,0.03790
39.500,0.03680
39.700,0.03650
39.800,0.03760
40.000,0.03720
40.200,0.03670
40.300,0.03560
40.500,0.03700
40.700,0.03600
40.800,0.03570
41.000,0.03560
41.200,0.03510
41.300,0.03470
41.500,0.03500
41.700,0.03490
41.800,0.03500
42.000,0.03480
42.200,0.03420
42.300,0.03410
42.500,0.03370
42.700,0.03420
42.800,0.03410
43.000,0.03350
43.200,0.03470
43.300,0.03400
43.500,0.03360
43.700,0.03220
43.800,0.03250
44.000,0.03310
44.200,0.03250
44.300,0.03160
44.500,0.03260
44.700,0.03230
44.800,0.03230
45.000,0.03220
45.200,0.03190
45.300,0.03210
45.500,0.03190
45.700,0.03230
45.800,0.03310
46.000,0.03310
20,1.60765
40,0.74786
48,0.13246
72,0.63200
48,0.29049
26,0.18939
0,0.01050
0.2,0.00410
0.4,0.00780
0.6,0.00980
0.79,0.01010
0.99,0.00990
1.19,0.01020
1.39,0.01200
1.59,0.01030
1.79,0.00790
1.98,0.00630
2.18,0.00510
2.38,0.00490
2.58,0.00330
2.78,0.00260
2.98,0.00150
7.74,0.00140
7.93,0.00250
8.13,0.00250
8.33,0.00340
8.53,0.00410
8.73,0.00540
8.92,0.00550
9.12,0.00520
9.32,0.00550
9.52,0.00570
9.72,0.00630
9.92,0.00790
10.12,0.00780
10.31,0.00820
10.51,0.00900
10.71,0.00960
10.91,0.01090
11.11,0.01070
11.31,0.01040
11.5,0.01050
11.7,0.01160
11.9,0.01190
12.1,0.01220
12.3,0.01250
12.5,0.01480
12.69,0.01520
12.89,0.01560
13.09,0.01650
13.29,0.01720
13.49,0.01730
13.69,0.01750
13.88,0.01860
14.08,0.01990
14.28,0.01980
14.48,0.02070
14.68,0.02100
14.88,0.02210
15.07,0.02300
15.27,0.02310
15.47,0.02390
15.67,0.02450
15.87,0.02330
16.07,0.02530
16.26,0.02560
16.46,0.02710
16.66,0.02830
16.86,0.02890
17.06,0.02990
17.26,0.02930
17.45,0.03000
17.65,0.03030
17.85,0.03140
18.05,0.03100
18.25,0.03230
18.45,0.03350
18.64,0.03310
18.84,0.03350
19.04,0.03450
19.24,0.03570
19.44,0.03570
19.64,0.03680
19.83,0.03740
20.03,0.03690
20.23,0.03870
20.43,0.03960
20.63,0.03860
20.83,0.03890
21.02,0.04000
21.22,0.03990
21.42,0.04070
21.62,0.04100
21.82,0.04200
22.02,0.04180
22.21,0.04290
22.41,0.04370
22.61,0.04370
22.81,0.04380
23.01,0.04320
23.21,0.04430
23.4,0.04460
23.6,0.04450
23.8,0.04590
24,0.04560
24.2,0.04590
24.4,0.04560
24.59,0.04600
24.79,0.04740
24.99,0.04880
25.19,0.04920
25.39,0.04950
25.59,0.05020
25.78,0.04940
25.98,0.04950
26.18,0.04940
26.38,0.04960
26.58,0.04990
26.78,0.05030
26.97,0.05040
27.17,0.05130
27.37,0.05160
27.57,0.05200
27.77,0.05250
27.97,0.05370
28.16,0.05430
28.36,0.05570
28.56,0.05590
28.76,0.05600
28.96,0.05510
29.16,0.05560
29.35,0.05600
29.55,0.05730
29.75,0.05750
29.95,0.05840
30.15,0.05830
30.35,0.05770
30.54,0.05720
30.74,0.05900
30.94,0.05880
31.14,0.05990
31.34,0.05960
31.54,0.06020
31.73,0.05980
31.93,0.06120
32.13,0.06110
32.33,0.06130
32.53,0.06260
32.73,0.06150
32.92,0.06260
33.12,0.06350
33.32,0.06250
33.52,0.06290
33.72,0.06390
33.91,0.06360
34.11,0.06390
34.31,0.06400
34.51,0.06440
34.71,0.06480
34.91,0.06530
35.1,0.06600
35.3,0.06610
35.5,0.06600
35.7,0.06690
35.9,0.06700
36.1,0.06760
36.29,0.06680
36.49,0.06770
36.69,0.06770
36.89,0.06870
37.09,0.06880
37.29,0.06900
37.48,0.06950
37.68,0.06940
37.88,0.07050
38.08,0.07060
38.28,0.07010
38.48,0.07090
38.67,0.07090
38.87,0.07100
39.07,0.07140
39.27,0.07190
39.47,0.07090
39.67,0.07200
39.86,0.07200
40.06,0.07260
40.26,0.07260
40.46,0.07330
40.66,0.07400
40.86,0.07390
41.05,0.07400
41.25,0.07380
41.45,0.07380
41.65,0.07470
41.85,0.07480
42.05,0.07560
42.24,0.07670
42.44,0.07700
42.64,0.07670
42.84,0.07680
43.04,0.07700
43.24,0.07790
43.43,0.07680
43.63,0.07620
43.83,0.07660
44.03,0.07870
44.23,0.07830
44.43,0.07820
44.62,0.07800
44.82,0.07800
45.02,0.07840
45.22,0.07920
45.42,0.07860
45.62,0.07860
45.81,0.07940
46.01,0.08000
46.21,0.08010
0.00,0.33443
0.60,0.33038
1.40,0.33302
3.10,0.37582
4.60,0.44626
5.20,0.46757
5.70,0.49628
6.20,0.51248
6.80,0.52657
7.30,0.54594
7.90,0.55844
0.00,0.33743
0.50,0.33760
1.10,0.33831
2.70,0.33866
3.60,0.34095
6.20,0.36860
8.60,0.40470
11.50,0.45665
0.00,0.31224
0.60,0.31383
2.00,0.31488
4.20,0.31577
6.30,0.32175
8.40,0.31682
11.80,0.32721
20.30,0.33584
24.50,0.35609
26.60,0.35733
28.90,0.35275
30.30,0.35803
33.40,0.36138
36.30,0.36825
43.80,0.38586
46.60,0.39378
49.90,0.39942
52.50,0.40206
55.60,0.41051
59.30,0.42548
66.10,0.43922
69.90,0.44626
73.50,0.46317
75.90,0.45912
79.70,0.46652
83.60,0.47831
89.70,0.49364
92.50,0.50790
0,0.32774
1.9,0.33355
5.1,0.33021
7.4,0.33038
10,0.33619
13.6,0.33549
20.8,0.34394
23.6,0.34606
25.5,0.34835
28.3,0.35486
31.4,0.35645
34.5,0.35944
37.7,0.36613
44.9,0.37194
47.6,0.37670
49.8,0.37864
52.3,0.38216
0.00,0.66253
2.80,0.65161
6.10,0.65936
13.50,0.67256
16.70,0.67978
19.40,0.67697
23.60,0.67697
26.10,0.67397
29.60,0.68454
29.60,0.68841
33.20,0.69070
36.50,0.70021
36.70,0.69229
45.20,0.73843
51.60,0.78633
55.40,0.84744
58.50,0.88249
61.40,0.90996
64.50,0.93039
72.20,1.05648
83.10,1.10773
85.60,1.13045
87.80,1.14630
89.80,1.16391
93.80,1.19138
96.10,1.20336
101.90,1.23207
104.00,1.24844
104.60,1.24351
0,0.24268
0.9,0.24321
2.4,0.24286
3.9,0.24409
7.1,0.24338
9.9,0.24515
17.7,0.24479
20.9,0.24655
23.9,0.24761
26.4,0.24497
29.9,0.24567
33.9,0.24303
41.2,0.24338
45.2,0.24515
49.2,0.24620
52.5,0.24620
57.5,0.24426
64.9,0.24867
69.1,0.24779
73.1,0.24849
77.3,0.24849
81.9,0.24832
89.1,0.24779
93.6,0.24867
98.9,0.24691
103.1,0.24832
106.4,0.24708
112.9,0.24867
116.9,0.24832
120.4,0.24761
0,0.96438
0.5,0.95170
1.5,0.96825
3.5,0.96702
6.3,0.95716
7.9,0.96156
9.7,0.95751
12.8,0.95716
20.9,0.96138
24.7,0.96121
27.4,0.96473
30.6,0.96772
34.2,0.96825
37.8,0.97283
45,0.98058
48.8,0.97283
52.3,0.97354
60.1,0.96931
64.7,0.95769
71.9,0.96720
75.9,0.96473
80.8,0.96561
85.4,0.97037
87.9,0.96649
95.9,0.96438
102.6,0.96544
108.1,0.96244
112.4,0.96068
123.2,0.65777
124.8,0.66182
126.5,0.66147
127.8,0.66305
130.3,0.66393
132.6,0.66393
134.6,0.66429
143.3,0.66341
146.3,0.60476
147.3,0.62871
147.9,0.61040
149.8,0.61392
151.3,0.61410
153.8,0.60617
156.9,0.61674
160.3,0.61903
167.3,0.62202
170.1,0.61762
0.00,0.64386
1.30,0.64615
3.90,0.64174
7.70,0.66253
11.70,0.68982
18.40,1.05261
19.90,1.13415
21.00,1.19015
22.00,1.25919
22.50,1.26887
0.0,0.62959
1.8,0.61339
6.1,0.61656
13.4,0.62854
17.6,0.63030
23.1,0.62607
27.3,0.62607
27.3,0.62061
30.6,0.62854
34.6,0.64174
37.5,0.62308
46.1,0.61920
46.4,0.62730
49.1,0.63083
52.9,0.62537
56.9,0.63312
60.9,0.63153
69.4,0.62783
72.4,0.62061
73.4,0.57940
74.8,0.58292
77.1,0.58962
78.6,0.58856
80.5,0.58997
84.1,0.58874
86.9,0.58979
92.9,0.59349
96.4,0.59525
100.1,0.59525
103,0.59613
106.0,0.59948
108.8,0.59613
115.8,0.61304
119.1,0.61850
123.1,0.62308
124.4,0.63452
127.0,0.64650
132.6,0.63294
140.8,0.64086
145.5,0.64104
151.2,0.65125
156.5,0.65425
164.8,0.64632
165.1,0.62255
168.5,0.62572
173.6,0.63435
179.0,0.63946
179.1,0.69986
188.9,0.68877
193.4,0.69387
198.4,0.69405
203.4,0.69070
212.4,0.69740
218.4,0.70321
222.4,0.70268
227.2,0.70691
236.5,0.70972
0.00,0.60969
0.50,0.63734
1.20,0.63347
3.30,0.62149
7.70,0.62079
16.00,0.63065
19.50,0.62818
24.10,0.63875
26.30,0.63681
29.40,0.65531
33.50,0.66094
41.20,0.68102
44.30,0.67961
48.80,0.69352
53.20,0.71448
57.50,0.70268
65.30,0.70884
69.80,0.71289
74.00,0.70937
80.80,0.71765
89.60,0.72434
101.10,0.75217
105.10,0.75252
113.80,0.77541
119.60,0.77453
123.10,0.78263
127.30,0.78844
128.60,0.78950
137.60,0.80042
143.90,0.81063
147.10,0.82314
152.50,0.83036
161.00,0.88090
165.10,0.88953
169.50,0.90186
175.20,0.91066
185.40,0.94800
189.60,0.97618
194.40,1.00576
200.00,1.04944
209.00,1.09329
213.50,1.10932
216.70,1.11900
219.00,1.12041
224.30,1.15282
233.30,1.18874
238.50,1.18821
243.50,1.21234
248.80,1.22168
257.80,1.26007
262.40,1.28560
268.00,1.32505
271.80,1.33139
280.70,1.35622
285.10,1.36697
290.40,1.36890
295.60,1.38616
304.70,1.40501
309.00,1.40835
314.70,1.42755
319.70,1.44428
328.30,1.46893
333.00,1.47932
338.50,1.49236
344.80,1.49852
352.80,1.51719
357.00,1.53392
362.40,1.53973
368.90,1.56650
374.20,1.57953
378.00,1.56826
382.70,1.59503
388.80,1.60559
0.00,0.22701
1.50,0.22595
3.70,0.22841
8.20,0.22982
15.40,0.23828
19.30,0.23440
23.40,0.23652
25.90,0.23616
31.40,0.23740
39.90,0.23951
44.70,0.24039
49.60,0.24180
55.40,0.24374
63.80,0.24603
68.60,0.24761
73.80,0.24937
79.00,0.24603
88.80,0.24620
92.50,0.24673
98.30,0.24779
103.80,0.24550
112.40,0.24920
117.80,0.24920
122.20,0.24796
132.70,0.24814
140.40,0.24796
148.20,0.24902
157.20,0.24849
164.10,0.24955
170.20,0.25096
181.40,0.25078
187.90,0.24867
195.40,0.25166
205.40,0.25078
212.40,0.25149
219.20,0.24990
229.10,0.25184
237.10,0.25201
242.10,0.25149
252.30,0.25184
265.20,0.25395
276.50,0.25413
287.00,0.25589
300.60,0.25466
0.00,0.22401
0.70,0.22524
1.40,0.22630
3.80,0.22930
9.00,0.22841
17.30,0.23053
21.40,0.23018
33.40,0.23000
0.00,0.36314
1.00,0.36261
4.00,0.36261
7.00,0.36155
15.00,0.36737
19.00,0.36948
24.30,0.37494
29.80,0.37599
39.00,0.38040
42.10,0.38128
43.00,0.38656
44.50,0.38603
49.00,0.39149
59.80,0.39871
68.50,0.40171
75.80,0.40576
84.50,0.40981
90.50,0.40558
97.80,0.40946
108.40,0.41527
112.80,0.41791
116.80,0.41668
122.80,0.41562
132.10,0.41703
138.30,0.41791
144.70,0.42143
156.20,0.42143
162.70,0.42002
170.30,0.42302
180.60,0.42372
186.60,0.42161
193.80,0.42161
205.10,0.42284
219.80,0.42548
229.70,0.42407
236.70,0.42478
242.80,0.42671
252.60,0.42566
258.80,0.42883
266.60,0.42936
276.60,0.43077
284.10,0.42513
291.10,0.42883
300.80,0.43217
308.70,0.43041
314.00,0.43024
324.50,0.42971
0.00,0.36014
0.60,0.35874
2.00,0.36965
4.00,0.36648
6.00,0.36666
11.00,0.36965
23.00,0.37212
29.00,0.37054
36.00,0.37406
45.80,0.37441
0.00,0.16995
0.50,0.17012
1.30,0.17558
3.30,0.17523
6.50,0.17576
12.30,0.17769
21.80,0.18157
26.90,0.18192
31.90,0.18298
36.40,0.18227
46.60,0.18456
53.10,0.18439
59.60,0.18474
69.60,0.18544
75.90,0.18474
83.40,0.18650
93.90,0.18615
99.90,0.18685
107.10,0.18685
117.90,0.18650
123.90,0.18544
132.90,0.18738
141.90,0.18773
148.10,0.18562
155.10,0.18756
157.20,0.18738
173.10,0.18650
179.90,0.18615
191.10,0.18756
202.40,0.18685
214.20,0.18756
220.00,0.18703
226.00,0.18809
237.70,0.18703
244.20,0.18826
250.40,0.18809
252.40,0.18809
259.00,0.18773
287.00,0.18685
294.00,0.18738
298.20,0.18703
308.50,0.18897
0.00,0.16801
0.50,0.16977
1.50,0.17188
3.50,0.17347
5.50,0.17259
11.30,0.17294
21.80,0.17488
30.50,0.17030
45.40,0.17435
51.00,0.17541
0.00,0.67908
0.60,0.68436
1.50,0.68736
3.30,0.68049
7.30,0.70708
11.80,0.71078
22.80,0.71465
29.50,0.72381
35.80,0.72575
48.50,0.74195
54.50,0.73861
60.30,0.73015
71.00,0.73279
78.00,0.73896
84.30,0.73966
95.00,0.74495
101.50,0.73561
109.50,0.74178
121.30,0.74371
128.30,0.73684
146.30,0.73949
156.30,0.73825
170.50,0.74178
182.30,0.74547
192.00,0.75129
206.50,0.74688
216.30,0.75005
229.00,0.75851
243.30,0.76220
254.50,0.75393
258.30,0.76080
280.00,0.74776
293.30,0.75921
302.50,0.75516
315.00,0.75622
326.30,0.75463
339.30,0.75674
343.50,0.76361
0.00,0.68577
0.50,0.68683
3.30,0.70109
6.30,0.70532
11.00,0.70426
22.00,0.71659
0.00,0.45207
0.80,0.45665
1.80,0.45595
4.00,0.45929
7.30,0.46511
12.30,0.46740
23.00,0.46282
29.00,0.46352
37.70,0.47004
47.70,0.47233
51.70,0.46775
59.70,0.46740
70.70,0.46704
81.10,0.47409
94.10,0.47057
101.10,0.47180
106.10,0.47532
106.10,0.46053
113.10,0.46810
124.10,0.46740
137.40,0.46898
148.40,0.46880
159.40,0.46828
171.90,0.47250
185.90,0.47497
196.90,0.47303
205.40,0.47286
220.40,0.47955
232.40,0.47338
245.40,0.47162
256.70,0.47550
271.90,0.47814
280.00,0.47867
297.50,0.48113
303.50,0.48148
0.00,0.45278
1.00,0.45489
2.00,0.45560
5.00,0.45524
7.80,0.45806
14.30,0.74178
0.00,0.44679
0.30,0.44538
0.50,0.44591
1.30,0.45225
4.00,0.45507
5.50,0.45753
6.50,0.45472
15.80,0.45472
18.50,0.45436
21.30,0.45736
24.50,0.45683
30.30,0.45683
39.50,0.45718
48.50,0.46000
54.50,0.45841
64.60,0.46088
73.30,0.46282
78.50,0.46370
90.80,0.45771
102.30,0.46405
115.00,0.45841
125.80,0.46405
137.80,0.46704
149.30,0.46616
161.80,0.46563
174.50,0.46141
185.80,0.46916
199.30,0.47391
213.30,0.46951
223.50,0.47321
236.80,0.47145
248.80,0.47444
248.80,0.46493
257.00,0.47391
270.50,0.48043
276.50,0.47831
282.00,0.48413
293.80,0.48518
307.80,0.48148
317.50,0.48483
0.00,0.45789
1.00,0.45771
4.00,0.46246
5.50,0.46423
6.80,0.46387
10.10,0.46740
13.30,0.47180
21.60,0.59631
23.40,0.64333
24.70,0.66482
26.00,0.69387
27.50,0.74618
29.50,0.79126
31.70,0.84093
33.80,0.86946
36.30,0.90115
0.00,0.46546
0.60,0.46616
2.30,0.46687
3.70,0.47233
4.40,0.47250
6.80,0.46933
12.50,0.47215
23.00,0.54893
25.00,0.57412
27.00,0.59508
29.00,0.61216
31.00,0.63171
33.50,0.65566
35.50,0.67732
37.80,0.70127
40.00,0.75023
41.70,0.76432
43.70,0.80394
45.70,0.83247
48.20,0.84991
0.00,0.25994
0.50,0.26011
2.00,0.25976
3.50,0.25765
7.00,0.26293
12.00,0.28671
13.00,0.29727
17.00,0.31911
21.30,0.34148
24.30,0.36578
27.00,0.38216
29.00,0.39642
31.00,0.40188
33.00,0.41351
0,0.59860
0.3,0.59666
1.3,0.60705
2.9,0.59543
5.4,0.59648
7.4,0.59243
11.2,0.61286
14.5,0.67256
18.5,0.73561
21.2,0.79919
23.3,0.84656
25.3,0.89816
27.3,0.94659
29.3,0.97952
31.6,1.01615
34.6,1.05173
0,0.46194
1.1,0.48201
1.9,0.50473
2.4,0.52657
2.9,0.55827
3.6,0.60177
4.2,0.64650
4.2,0.33690
4.8,0.36208
5.9,0.39096
6.9,0.39801
8.2,0.41386
10.2,0.44538
10.2,0.39184
11.3,0.39572
12.5,0.39713
14.2,0.40118
15.7,0.40400
0,0.45736
2.3,0.45595
5.8,0.46616
8.8,0.48923
10.9,0.49945
17.4,0.57359
20.9,0.64016
23.9,0.68207
26.9,0.74406
29.4,0.78122
32.4,0.81962
33.4,0.82367
0,0.45524
1.3,0.45841
3.8,0.45877
11,0.42108
15.2,0.43534
21,0.57518
24.3,0.63488
27.3,0.65883
30.5,0.69969
34.3,0.71589
